#Rx
# X(m), Y(m), Z(m), Distance(m), Power (dBm) Phase (deg)
1 -28.0028 2.95289 1.4 51.4926 -250 0
2 -27.2528 2.95289 1.4 50.7876 -250 0
3 -26.5028 2.95289 1.4 50.0839 -250 0
4 -25.7528 2.95289 1.4 49.3816 -250 0
5 -25.0028 2.95289 1.4 48.6806 -250 0
6 -24.2528 2.95289 1.4 47.9812 -250 0
7 -23.5028 2.95289 1.4 47.2833 -250 0
8 -22.7528 2.95289 1.4 46.587 -250 0
9 -22.0028 2.95289 1.4 45.8925 -250 0
10 -21.2528 2.95289 1.4 45.1997 -250 0
11 -20.5028 2.95289 1.4 44.5087 -195.317 -70.005
12 -19.7528 2.95289 1.4 43.8197 -195.246 -71.8162
13 -19.0028 2.95289 1.4 43.1327 -195.176 -75.2861
14 -18.2528 2.95289 1.4 42.4479 -113.66 -116.088
15 -17.5028 2.95289 1.4 41.7653 -186.183 172.477
16 -16.7528 2.95289 1.4 41.085 -250 0
17 -16.0028 2.95289 1.4 40.4073 -250 0
18 -15.2528 2.95289 1.4 39.7321 -250 0
19 -14.5028 2.95289 1.4 39.0596 -250 0
20 -13.7528 2.95289 1.4 38.39 -96.7439 -118.292
21 -13.0028 2.95289 1.4 37.7235 -90.1728 43.6399
22 -12.2528 2.95289 1.4 37.0601 -98.8442 96.2194
23 -11.5028 2.95289 1.4 36.4001 -250 0
24 -10.7528 2.95289 1.4 35.7437 -250 0
25 -10.0028 2.95289 1.4 35.091 -250 0
26 -9.25282 2.95289 1.4 34.4422 -118.617 167.406
27 -8.50282 2.95289 1.4 33.7977 -103.97 -120.749
28 -7.75282 2.95289 1.4 33.1576 -94.5542 -171.78
29 -7.00282 2.95289 1.4 32.5221 -117.033 -132.501
30 -6.25282 2.95289 1.4 31.8917 -250 0
31 -5.50282 2.95289 1.4 31.2666 -250 0
32 -4.75282 2.95289 1.4 30.647 -250 0
33 -4.00282 2.95289 1.4 30.0334 -250 0
34 -3.25282 2.95289 1.4 29.4261 -106.736 -162.959
35 -2.50282 2.95289 1.4 28.8255 -90.6544 92.5809
36 -1.75282 2.95289 1.4 28.2321 -96.4208 178.902
37 -1.00282 2.95289 1.4 27.6463 -115.335 -26.5171
38 -0.25282 2.95289 1.4 27.0686 -117.512 -168.933
39 0.49718 2.95289 1.4 26.4995 -105.25 107.43
40 1.24718 2.95289 1.4 25.9397 -99.9232 -26.7165
41 1.99718 2.95289 1.4 25.3896 -83.9599 -9.70013
42 2.74718 2.95289 1.4 24.85 -97.4101 42.6459
43 3.49718 2.95289 1.4 24.3216 -250 0
44 4.24718 2.95289 1.4 23.8051 -84.4527 -59.2964
45 4.99718 2.95289 1.4 23.3012 -86.0702 -67.8715
46 5.74718 2.95289 1.4 22.8109 -87.2788 4.53077
47 6.49718 2.95289 1.4 22.3351 -69.5231 -170.556
48 7.24718 2.95289 1.4 21.8745 -72.3322 148.964
49 7.99718 2.95289 1.4 21.4304 -73.0734 -98.1187
50 8.74718 2.95289 1.4 21.0036 -250 0
51 9.49718 2.95289 1.4 20.5954 -250 0
52 10.2472 2.95289 1.4 20.2067 -250 0
53 10.9972 2.95289 1.4 19.8387 -89.1861 -64.0769
54 11.7472 2.95289 1.4 19.4927 -73.5625 -136.081
55 12.4972 2.95289 1.4 19.1698 -71.5203 -169.395
56 13.2472 2.95289 1.4 18.8713 -87.1284 -47.4025
57 13.9972 2.95289 1.4 18.5981 -110.611 -142.146
58 14.7472 2.95289 1.4 18.3516 -107.799 -161.452
59 15.4972 2.95289 1.4 18.1328 -93.5141 60.5889
60 16.2472 2.95289 1.4 17.9426 -81.085 -28.9116
61 16.9972 2.95289 1.4 17.7821 -78.6507 -26.7174
62 17.7472 2.95289 1.4 17.6521 -98.2678 -26.2911
63 18.4972 2.95289 1.4 17.5531 -85.0382 170.546
64 19.2472 2.95289 1.4 17.4858 -77.5022 170.794
65 19.9972 2.95289 1.4 17.4505 -70.2611 -5.76482
66 20.7472 2.95289 1.4 17.4474 -74.6003 77.8405
67 21.4972 2.95289 1.4 17.4764 -65.9027 32.548
68 22.2472 2.95289 1.4 17.5376 -73.7068 -91.9774
69 22.9972 2.95289 1.4 17.6305 -72.3798 -129.083
70 23.7472 2.95289 1.4 17.7546 -58.8726 101.071
71 24.4972 2.95289 1.4 17.9092 -60.3045 120.073
72 25.2472 2.95289 1.4 18.0937 -88.6478 -29.2422
73 25.9972 2.95289 1.4 18.307 -81.4443 146.363
74 26.7472 2.95289 1.4 18.5483 -71.0861 -75.4699
75 27.4972 2.95289 1.4 18.8163 -250 0
76 28.2472 2.95289 1.4 19.1101 -250 0
77 28.9972 2.95289 1.4 19.4284 -250 0
78 29.7472 2.95289 1.4 19.77 -250 0
79 30.4972 2.95289 1.4 20.1338 -250 0
80 -28.0028 3.70289 1.4 51.2434 -250 0
81 -27.2528 3.70289 1.4 50.5349 -250 0
82 -26.5028 3.70289 1.4 49.8276 -250 0
83 -25.7528 3.70289 1.4 49.1216 -250 0
84 -25.0028 3.70289 1.4 48.4169 -250 0
85 -24.2528 3.70289 1.4 47.7136 -250 0
86 -23.5028 3.70289 1.4 47.0118 -250 0
87 -22.7528 3.70289 1.4 46.3114 -250 0
88 -22.0028 3.70289 1.4 45.6126 -250 0
89 -21.2528 3.70289 1.4 44.9155 -250 0
90 -20.5028 3.70289 1.4 44.2201 -250 0
91 -19.7528 3.70289 1.4 43.5266 -250 0
92 -19.0028 3.70289 1.4 42.8349 -250 0
93 -18.2528 3.70289 1.4 42.1452 -250 0
94 -17.5028 3.70289 1.4 41.4576 -195.206 50.1616
95 -16.7528 3.70289 1.4 40.7722 -250 0
96 -16.0028 3.70289 1.4 40.0892 -250 0
97 -15.2528 3.70289 1.4 39.4085 -250 0
98 -14.5028 3.70289 1.4 38.7305 -250 0
99 -13.7528 3.70289 1.4 38.0551 -98.207 105.742
100 -13.0028 3.70289 1.4 37.3826 -87.2703 131.294
101 -12.2528 3.70289 1.4 36.713 -94.8321 -69.7765
102 -11.5028 3.70289 1.4 36.0467 -100.755 -50.4283
103 -10.7528 3.70289 1.4 35.3837 -118.344 83.0789
104 -10.0028 3.70289 1.4 34.7242 -118.389 -97.7373
105 -9.25282 3.70289 1.4 34.0685 -98.2594 53.2221
106 -8.50282 3.70289 1.4 33.4167 -95.8251 -23.8996
107 -7.75282 3.70289 1.4 32.7692 -250 0
108 -7.00282 3.70289 1.4 32.1261 -110.708 -63.2454
109 -6.25282 3.70289 1.4 31.4877 -116.926 -150.6
110 -5.50282 3.70289 1.4 30.8544 -250 0
111 -4.75282 3.70289 1.4 30.2264 -250 0
112 -4.00282 3.70289 1.4 29.604 -250 0
113 -3.25282 3.70289 1.4 28.9878 -90.1971 9.1462
114 -2.50282 3.70289 1.4 28.3779 -113.04 76.6726
115 -1.75282 3.70289 1.4 27.775 -119.735 91.0763
116 -1.00282 3.70289 1.4 27.1793 -118.493 -52.9944
117 -0.25282 3.70289 1.4 26.5914 -111.524 -72.177
118 0.49718 3.70289 1.4 26.0119 -100.059 -143.808
119 1.24718 3.70289 1.4 25.4414 -89.9563 -113.217
120 1.99718 3.70289 1.4 24.8803 -92.5581 -173.113
121 2.74718 3.70289 1.4 24.3294 -93.0888 111.017
122 3.49718 3.70289 1.4 23.7894 -250 0
123 4.24718 3.70289 1.4 23.2611 -65.9342 -78.6012
124 4.99718 3.70289 1.4 22.7452 -86.8547 98.2575
125 5.74718 3.70289 1.4 22.2426 -80.5381 94.0003
126 6.49718 3.70289 1.4 21.7543 -78.5827 -37.8327
127 7.24718 3.70289 1.4 21.2812 -76.2833 73.26
128 7.99718 3.70289 1.4 20.8244 -69.3928 -95.6889
129 8.74718 3.70289 1.4 20.385 -97.6292 -57.5119
130 9.49718 3.70289 1.4 19.9641 -250 0
131 10.2472 3.70289 1.4 19.5629 -75.3468 156.103
132 10.9972 3.70289 1.4 19.1826 -73.8304 -112.348
133 11.7472 3.70289 1.4 18.8245 -72.2288 21.9605
134 12.4972 3.70289 1.4 18.49 -68.0027 173.823
135 13.2472 3.70289 1.4 18.1802 -76.7827 -164.14
136 13.9972 3.70289 1.4 17.8965 -113.659 -168.815
137 14.7472 3.70289 1.4 17.6402 -110.572 22.3814
138 15.4972 3.70289 1.4 17.4124 -89.3795 43.8929
139 16.2472 3.70289 1.4 17.2144 -89.2589 151.326
140 16.9972 3.70289 1.4 17.047 -77.9373 48.1771
141 17.7472 3.70289 1.4 16.9113 -78.9385 171.164
142 18.4972 3.70289 1.4 16.808 -83.3767 -149.664
143 19.2472 3.70289 1.4 16.7376 -75.2648 176.924
144 19.9972 3.70289 1.4 16.7007 -70.7341 102.836
145 20.7472 3.70289 1.4 16.6975 -72.6894 -31.1166
146 21.4972 3.70289 1.4 16.7279 -64.7718 -19.671
147 22.2472 3.70289 1.4 16.7917 -72.8068 171.299
148 22.9972 3.70289 1.4 16.8887 -62.1545 -170.332
149 23.7472 3.70289 1.4 17.0182 -61.9649 -119.078
150 24.4972 3.70289 1.4 17.1795 -60.3984 -148.755
151 25.2472 3.70289 1.4 17.3717 -95.745 -170.739
152 25.9972 3.70289 1.4 17.5938 -80.7273 162.421
153 26.7472 3.70289 1.4 17.8447 -70.3653 -114.942
154 27.4972 3.70289 1.4 18.1232 -250 0
155 28.2472 3.70289 1.4 18.428 -250 0
156 28.9972 3.70289 1.4 18.7579 -250 0
157 29.7472 3.70289 1.4 19.1115 -250 0
158 30.4972 3.70289 1.4 19.4875 -250 0
159 -28.0028 4.45289 1.4 51.004 -250 0
160 -27.2528 4.45289 1.4 50.2921 -250 0
161 -26.5028 4.45289 1.4 49.5814 -250 0
162 -25.7528 4.45289 1.4 48.8718 -250 0
163 -25.0028 4.45289 1.4 48.1635 -250 0
164 -24.2528 4.45289 1.4 47.4564 -250 0
165 -23.5028 4.45289 1.4 46.7507 -250 0
166 -22.7528 4.45289 1.4 46.0464 -250 0
167 -22.0028 4.45289 1.4 45.3435 -250 0
168 -21.2528 4.45289 1.4 44.6422 -250 0
169 -20.5028 4.45289 1.4 43.9425 -250 0
170 -19.7528 4.45289 1.4 43.2444 -250 0
171 -19.0028 4.45289 1.4 42.5482 -250 0
172 -18.2528 4.45289 1.4 41.8538 -250 0
173 -17.5028 4.45289 1.4 41.1613 -250 0
174 -16.7528 4.45289 1.4 40.4709 -250 0
175 -16.0028 4.45289 1.4 39.7827 -250 0
176 -15.2528 4.45289 1.4 39.0967 -250 0
177 -14.5028 4.45289 1.4 38.4131 -250 0
178 -13.7528 4.45289 1.4 37.7321 -116.424 -75.2287
179 -13.0028 4.45289 1.4 37.0537 -250 0
180 -12.2528 4.45289 1.4 36.3781 -97.7745 -2.03201
181 -11.5028 4.45289 1.4 35.7055 -93.3032 -167.592
182 -10.7528 4.45289 1.4 35.0361 -104.174 -160.337
183 -10.0028 4.45289 1.4 34.3699 -95.796 -122.162
184 -9.25282 4.45289 1.4 33.7073 -250 0
185 -8.50282 4.45289 1.4 33.0484 -250 0
186 -7.75282 4.45289 1.4 32.3935 -250 0
187 -7.00282 4.45289 1.4 31.7428 -250 0
188 -6.25282 4.45289 1.4 31.0966 -111.441 72.8143
189 -5.50282 4.45289 1.4 30.4551 -109.513 30.9745
190 -4.75282 4.45289 1.4 29.8187 -117.681 173.794
191 -4.00282 4.45289 1.4 29.1877 -250 0
192 -3.25282 4.45289 1.4 28.5624 -250 0
193 -2.50282 4.45289 1.4 27.9433 -107.428 93.1213
194 -1.75282 4.45289 1.4 27.3307 -111.468 -105.194
195 -1.00282 4.45289 1.4 26.7252 -109.237 -137.424
196 -0.25282 4.45289 1.4 26.1271 -114.81 84.2496
197 0.49718 4.45289 1.4 25.5371 -97.2216 -101.269
198 1.24718 4.45289 1.4 24.9556 -97.7824 -58.9168
199 1.99718 4.45289 1.4 24.3834 -99.8732 -65.077
200 2.74718 4.45289 1.4 23.821 -103.784 102.479
201 3.49718 4.45289 1.4 23.2692 -99.0574 -24.4932
202 4.24718 4.45289 1.4 22.7288 -67.6149 69.8608
203 4.99718 4.45289 1.4 22.2005 -66.2654 -175.442
204 5.74718 4.45289 1.4 21.6853 -78.2635 100.349
205 6.49718 4.45289 1.4 21.1842 -87.822 10.0488
206 7.24718 4.45289 1.4 20.6981 -70.2119 -44.7278
207 7.99718 4.45289 1.4 20.2281 -69.7355 -49.4165
208 8.74718 4.45289 1.4 19.7755 -69.7909 107.829
209 9.49718 4.45289 1.4 19.3413 -250 0
210 10.2472 4.45289 1.4 18.9269 -65.6647 31.2327
211 10.9972 4.45289 1.4 18.5335 -68.3234 -117.492
212 11.7472 4.45289 1.4 18.1627 -68.7606 40.0582
213 12.4972 4.45289 1.4 17.8157 -250 0
214 13.2472 4.45289 1.4 17.494 -69.6805 -3.60745
215 13.9972 4.45289 1.4 17.199 -118.943 150.359
216 14.7472 4.45289 1.4 16.9321 -87.8333 120.468
217 15.4972 4.45289 1.4 16.6947 -98.8224 -89.5809
218 16.2472 4.45289 1.4 16.488 -91.8285 55.3409
219 16.9972 4.45289 1.4 16.3132 -85.8568 50.0853
220 17.7472 4.45289 1.4 16.1713 -81.2788 -125.906
221 18.4972 4.45289 1.4 16.0632 -87.0541 72.8591
222 19.2472 4.45289 1.4 15.9896 -72.6895 173.308
223 19.9972 4.45289 1.4 15.951 -69.8416 41.6289
224 20.7472 4.45289 1.4 15.9476 -61.5424 -158.858
225 21.4972 4.45289 1.4 15.9794 -73.737 46.1686
226 22.2472 4.45289 1.4 16.0463 -65.9816 166.757
227 22.9972 4.45289 1.4 16.1477 -60.6656 15.708
228 23.7472 4.45289 1.4 16.2831 -59.2734 24.9926
229 24.4972 4.45289 1.4 16.4516 -52.3293 -55.1369
230 25.2472 4.45289 1.4 16.6522 -77.7215 25.1869
231 25.9972 4.45289 1.4 16.8838 -65.9413 102.287
232 26.7472 4.45289 1.4 17.1451 -95.2025 63.8655
233 27.4972 4.45289 1.4 17.4348 -250 0
234 28.2472 4.45289 1.4 17.7514 -250 0
235 28.9972 4.45289 1.4 18.0936 -250 0
236 29.7472 4.45289 1.4 18.4599 -250 0
237 30.4972 4.45289 1.4 18.849 -250 0
238 -28.0028 5.20289 1.4 50.7745 -250 0
239 -27.2528 5.20289 1.4 50.0594 -250 0
240 -26.5028 5.20289 1.4 49.3453 -250 0
241 -25.7528 5.20289 1.4 48.6323 -250 0
242 -25.0028 5.20289 1.4 47.9204 -250 0
243 -24.2528 5.20289 1.4 47.2097 -250 0
244 -23.5028 5.20289 1.4 46.5002 -250 0
245 -22.7528 5.20289 1.4 45.7921 -250 0
246 -22.0028 5.20289 1.4 45.0852 -250 0
247 -21.2528 5.20289 1.4 44.3798 -250 0
248 -20.5028 5.20289 1.4 43.6759 -250 0
249 -19.7528 5.20289 1.4 42.9736 -250 0
250 -19.0028 5.20289 1.4 42.2729 -250 0
251 -18.2528 5.20289 1.4 41.5738 -250 0
252 -17.5028 5.20289 1.4 40.8767 -250 0
253 -16.7528 5.20289 1.4 40.1814 -250 0
254 -16.0028 5.20289 1.4 39.4881 -250 0
255 -15.2528 5.20289 1.4 38.7969 -250 0
256 -14.5028 5.20289 1.4 38.1079 -250 0
257 -13.7528 5.20289 1.4 37.4213 -250 0
258 -13.0028 5.20289 1.4 36.7372 -111.589 -75.6041
259 -12.2528 5.20289 1.4 36.0557 -107.314 -176.961
260 -11.5028 5.20289 1.4 35.377 -94.2253 178.637
261 -10.7528 5.20289 1.4 34.7012 -92.8368 67.4705
262 -10.0028 5.20289 1.4 34.0285 -250 0
263 -9.25282 5.20289 1.4 33.3591 -111.117 -43.9977
264 -8.50282 5.20289 1.4 32.6932 -250 0
265 -7.75282 5.20289 1.4 32.031 -250 0
266 -7.00282 5.20289 1.4 31.3728 -250 0
267 -6.25282 5.20289 1.4 30.7188 -250 0
268 -5.50282 5.20289 1.4 30.0692 -111.204 -37.1609
269 -4.75282 5.20289 1.4 29.4245 -250 0
270 -4.00282 5.20289 1.4 28.7848 -114.293 52.21
271 -3.25282 5.20289 1.4 28.1506 -250 0
272 -2.50282 5.20289 1.4 27.5222 -250 0
273 -1.75282 5.20289 1.4 26.9001 -107.228 -13.2766
274 -1.00282 5.20289 1.4 26.2846 -112.191 152.425
275 -0.25282 5.20289 1.4 25.6763 -94.3797 -111.006
276 0.49718 5.20289 1.4 25.0756 -93.2781 73.2827
277 1.24718 5.20289 1.4 24.4832 -106.115 125.181
278 1.99718 5.20289 1.4 23.8997 -103.696 10.6996
279 2.74718 5.20289 1.4 23.3256 -102.764 -154.263
280 3.49718 5.20289 1.4 22.7618 -103.618 -29.7569
281 4.24718 5.20289 1.4 22.2091 -65.115 158.756
282 4.99718 5.20289 1.4 21.6681 -64.5231 -61.7966
283 5.74718 5.20289 1.4 21.14 -62.5746 64.3694
284 6.49718 5.20289 1.4 20.6256 -250 0
285 7.24718 5.20289 1.4 20.126 -88.0835 -153.205
286 7.99718 5.20289 1.4 19.6424 -68.8959 -164.834
287 8.74718 5.20289 1.4 19.1759 -67.4004 131.468
288 9.49718 5.20289 1.4 18.7278 -72.4371 -27.3602
289 10.2472 5.20289 1.4 18.2995 -67.7326 119.61
290 10.9972 5.20289 1.4 17.8924 -79.5254 -110.542
291 11.7472 5.20289 1.4 17.5079 -86.7869 -46.1882
292 12.4972 5.20289 1.4 17.1477 -250 0
293 13.2472 5.20289 1.4 16.8133 -89.3909 37.737
294 13.9972 5.20289 1.4 16.5061 -94.6349 -49.5727
295 14.7472 5.20289 1.4 16.2278 -95.8082 148.703
296 15.4972 5.20289 1.4 15.9799 -90.9423 -80.8798
297 16.2472 5.20289 1.4 15.7639 -250 0
298 16.9972 5.20289 1.4 15.5809 -123.571 -103.474
299 17.7472 5.20289 1.4 15.4323 -93.3993 140.194
300 18.4972 5.20289 1.4 15.319 -74.5765 -89.156
301 19.2472 5.20289 1.4 15.2419 -73.8684 168.574
302 19.9972 5.20289 1.4 15.2013 -69.2368 65.8686
303 20.7472 5.20289 1.4 15.1977 -74.3536 -36.4388
304 21.4972 5.20289 1.4 15.2311 -73.9715 -88.9991
305 22.2472 5.20289 1.4 15.3013 -65.0558 116.239
306 22.9972 5.20289 1.4 15.4076 -74.3861 143.585
307 23.7472 5.20289 1.4 15.5495 -61.7455 104.269
308 24.4972 5.20289 1.4 15.7258 -56.2213 -24.3661
309 25.2472 5.20289 1.4 15.9356 -104.417 89.3225
310 25.9972 5.20289 1.4 16.1774 -111.836 31.3707
311 26.7472 5.20289 1.4 16.4499 -116.088 -19.5578
312 27.4972 5.20289 1.4 16.7516 -250 0
313 28.2472 5.20289 1.4 17.0809 -250 0
314 28.9972 5.20289 1.4 17.4363 -250 0
315 29.7472 5.20289 1.4 17.8161 -250 0
316 30.4972 5.20289 1.4 18.219 -250 0
317 -28.0028 5.95289 1.4 50.5551 -250 0
318 -27.2528 5.95289 1.4 49.8369 -250 0
319 -26.5028 5.95289 1.4 49.1195 -250 0
320 -25.7528 5.95289 1.4 48.4032 -250 0
321 -25.0028 5.95289 1.4 47.6879 -250 0
322 -24.2528 5.95289 1.4 46.9737 -250 0
323 -23.5028 5.95289 1.4 46.2606 -250 0
324 -22.7528 5.95289 1.4 45.5487 -250 0
325 -22.0028 5.95289 1.4 44.838 -250 0
326 -21.2528 5.95289 1.4 44.1287 -250 0
327 -20.5028 5.95289 1.4 43.4207 -250 0
328 -19.7528 5.95289 1.4 42.7141 -250 0
329 -19.0028 5.95289 1.4 42.0091 -250 0
330 -18.2528 5.95289 1.4 41.3056 -250 0
331 -17.5028 5.95289 1.4 40.6038 -250 0
332 -16.7528 5.95289 1.4 39.9038 -250 0
333 -16.0028 5.95289 1.4 39.2056 -250 0
334 -15.2528 5.95289 1.4 38.5093 -250 0
335 -14.5028 5.95289 1.4 37.8152 -250 0
336 -13.7528 5.95289 1.4 37.1231 -250 0
337 -13.0028 5.95289 1.4 36.4334 -99.0474 -2.33958
338 -12.2528 5.95289 1.4 35.7461 -250 0
339 -11.5028 5.95289 1.4 35.0614 -112.801 85.9164
340 -10.7528 5.95289 1.4 34.3794 -104.153 -135.215
341 -10.0028 5.95289 1.4 33.7003 -100.868 -1.41557
342 -9.25282 5.95289 1.4 33.0242 -250 0
343 -8.50282 5.95289 1.4 32.3514 -250 0
344 -7.75282 5.95289 1.4 31.6821 -250 0
345 -7.00282 5.95289 1.4 31.0165 -250 0
346 -6.25282 5.95289 1.4 30.3548 -250 0
347 -5.50282 5.95289 1.4 29.6973 -100.174 146.966
348 -4.75282 5.95289 1.4 29.0443 -109.133 -151.852
349 -4.00282 5.95289 1.4 28.3961 -250 0
350 -3.25282 5.95289 1.4 27.753 -250 0
351 -2.50282 5.95289 1.4 27.1154 -250 0
352 -1.75282 5.95289 1.4 26.4837 -114.753 -91.5303
353 -1.00282 5.95289 1.4 25.8583 -93.7479 145.032
354 -0.25282 5.95289 1.4 25.2397 -102.559 -170.266
355 0.49718 5.95289 1.4 24.6284 -94.3908 -123.266
356 1.24718 5.95289 1.4 24.025 -109.358 94.1344
357 1.99718 5.95289 1.4 23.43 -250 0
358 2.74718 5.95289 1.4 22.8442 -103.493 -100.617
359 3.49718 5.95289 1.4 22.2682 -96.3457 81.8259
360 4.24718 5.95289 1.4 21.7028 -97.2427 167.199
361 4.99718 5.95289 1.4 21.149 -66.8849 34.0734
362 5.74718 5.95289 1.4 20.6075 -64.2824 -159.745
363 6.49718 5.95289 1.4 20.0795 -64.2267 -40.7148
364 7.24718 5.95289 1.4 19.566 -250 0
365 7.99718 5.95289 1.4 19.0681 -250 0
366 8.74718 5.95289 1.4 18.5872 -68.8246 68.3488
367 9.49718 5.95289 1.4 18.1246 -70.028 -2.14597
368 10.2472 5.95289 1.4 17.6817 -69.993 97.2893
369 10.9972 5.95289 1.4 17.26 -64.6825 -79.0823
370 11.7472 5.95289 1.4 16.8612 -250 0
371 12.4972 5.95289 1.4 16.4868 -250 0
372 13.2472 5.95289 1.4 16.1386 -88.018 30.521
373 13.9972 5.95289 1.4 15.8184 -250 0
374 14.7472 5.95289 1.4 15.5278 -250 0
375 15.4972 5.95289 1.4 15.2686 -250 0
376 16.2472 5.95289 1.4 15.0423 -250 0
377 16.9972 5.95289 1.4 14.8505 -99.5779 -70.2617
378 17.7472 5.95289 1.4 14.6945 -74.5537 154.464
379 18.4972 5.95289 1.4 14.5754 -76.5931 -58.7902
380 19.2472 5.95289 1.4 14.4943 -63.3257 -60.2229
381 19.9972 5.95289 1.4 14.4517 -74.7777 155.734
382 20.7472 5.95289 1.4 14.4479 -73.6177 75.1825
383 21.4972 5.95289 1.4 14.483 -64.9237 -78.9489
384 22.2472 5.95289 1.4 14.5567 -63.5106 -115.634
385 22.9972 5.95289 1.4 14.6685 -58.8818 -81.0517
386 23.7472 5.95289 1.4 14.8174 -56.0234 -175.828
387 24.4972 5.95289 1.4 15.0024 -63.2834 14.1206
388 25.2472 5.95289 1.4 15.2221 -105.791 174.968
389 25.9972 5.95289 1.4 15.4751 -104.174 71.1617
390 26.7472 5.95289 1.4 15.7598 -107.74 -149.82
391 27.4972 5.95289 1.4 16.0744 -250 0
392 28.2472 5.95289 1.4 16.4173 -250 0
393 28.9972 5.95289 1.4 16.7867 -250 0
394 29.7472 5.95289 1.4 17.1809 -250 0
395 30.4972 5.95289 1.4 17.5983 -250 0
396 -28.0028 6.70289 1.4 50.346 -250 0
397 -27.2528 6.70289 1.4 49.6247 -250 0
398 -26.5028 6.70289 1.4 48.9042 -250 0
399 -25.7528 6.70289 1.4 48.1847 -250 0
400 -25.0028 6.70289 1.4 47.4661 -250 0
401 -24.2528 6.70289 1.4 46.7485 -250 0
402 -23.5028 6.70289 1.4 46.0319 -250 0
403 -22.7528 6.70289 1.4 45.3164 -250 0
404 -22.0028 6.70289 1.4 44.6021 -250 0
405 -21.2528 6.70289 1.4 43.8889 -250 0
406 -20.5028 6.70289 1.4 43.177 -250 0
407 -19.7528 6.70289 1.4 42.4664 -250 0
408 -19.0028 6.70289 1.4 41.7572 -250 0
409 -18.2528 6.70289 1.4 41.0494 -250 0
410 -17.5028 6.70289 1.4 40.3431 -250 0
411 -16.7528 6.70289 1.4 39.6385 -250 0
412 -16.0028 6.70289 1.4 38.9355 -250 0
413 -15.2528 6.70289 1.4 38.2343 -250 0
414 -14.5028 6.70289 1.4 37.5351 -250 0
415 -13.7528 6.70289 1.4 36.8378 -250 0
416 -13.0028 6.70289 1.4 36.1426 -250 0
417 -12.2528 6.70289 1.4 35.4497 -250 0
418 -11.5028 6.70289 1.4 34.7591 -250 0
419 -10.7528 6.70289 1.4 34.0711 -250 0
420 -10.0028 6.70289 1.4 33.3857 -99.4439 64.3922
421 -9.25282 6.70289 1.4 32.7031 -143.468 -104.459
422 -8.50282 6.70289 1.4 32.0236 -250 0
423 -7.75282 6.70289 1.4 31.3473 -250 0
424 -7.00282 6.70289 1.4 30.6744 -250 0
425 -6.25282 6.70289 1.4 30.0051 -250 0
426 -5.50282 6.70289 1.4 29.3398 -250 0
427 -4.75282 6.70289 1.4 28.6787 -98.423 29.2881
428 -4.00282 6.70289 1.4 28.022 -250 0
429 -3.25282 6.70289 1.4 27.3701 -250 0
430 -2.50282 6.70289 1.4 26.7234 -115.115 82.4445
431 -1.75282 6.70289 1.4 26.0822 -89.0267 16.4188
432 -1.00282 6.70289 1.4 25.4469 -100.13 65.7434
433 -0.25282 6.70289 1.4 24.8181 -105.147 140.583
434 0.49718 6.70289 1.4 24.1961 -89.327 -158.419
435 1.24718 6.70289 1.4 23.5816 -101.478 127.033
436 1.99718 6.70289 1.4 22.9752 -110.839 38.9952
437 2.74718 6.70289 1.4 22.3775 -101.103 -41.0287
438 3.49718 6.70289 1.4 21.7892 -93.2201 143.859
439 4.24718 6.70289 1.4 21.211 -77.8477 32.9717
440 4.99718 6.70289 1.4 20.644 -86.0426 90.1653
441 5.74718 6.70289 1.4 20.0889 -63.8538 -68.3463
442 6.49718 6.70289 1.4 19.5469 -65.3449 88.615
443 7.24718 6.70289 1.4 19.019 -63.8326 -151.849
444 7.99718 6.70289 1.4 18.5064 -250 0
445 8.74718 6.70289 1.4 18.0105 -88.2469 92.7036
446 9.49718 6.70289 1.4 17.5327 -70.3506 -57.6618
447 10.2472 6.70289 1.4 17.0745 -78.5482 -28.3467
448 10.9972 6.70289 1.4 16.6374 -74.2424 108.695
449 11.7472 6.70289 1.4 16.2233 -74.7914 88.1593
450 12.4972 6.70289 1.4 15.8338 -87.9729 -106.715
451 13.2472 6.70289 1.4 15.471 -68.3246 3.73681
452 13.9972 6.70289 1.4 15.1366 -250 0
453 14.7472 6.70289 1.4 14.8327 -250 0
454 15.4972 6.70289 1.4 14.5611 -250 0
455 16.2472 6.70289 1.4 14.3236 -250 0
456 16.9972 6.70289 1.4 14.122 -93.3394 101.788
457 17.7472 6.70289 1.4 13.9579 -89.0333 -109.109
458 18.4972 6.70289 1.4 13.8325 -69.3773 -133.594
459 19.2472 6.70289 1.4 13.747 -71.6845 172.716
460 19.9972 6.70289 1.4 13.702 -72.6342 -99.1718
461 20.7472 6.70289 1.4 13.6981 -72.6717 91.1004
462 21.4972 6.70289 1.4 13.7351 -65.3995 24.656
463 22.2472 6.70289 1.4 13.8128 -62.6626 96.1021
464 22.9972 6.70289 1.4 13.9306 -56.3989 11.0228
465 23.7472 6.70289 1.4 14.0873 -61.048 -151.905
466 24.4972 6.70289 1.4 14.2817 -63.3717 -162.663
467 25.2472 6.70289 1.4 14.5124 -132.417 144.836
468 25.9972 6.70289 1.4 14.7775 -88.6569 -166.91
469 26.7472 6.70289 1.4 15.0753 -103.952 -123.323
470 27.4972 6.70289 1.4 15.404 -250 0
471 28.2472 6.70289 1.4 15.7614 -250 0
472 28.9972 6.70289 1.4 16.1459 -250 0
473 29.7472 6.70289 1.4 16.5554 -250 0
474 30.4972 6.70289 1.4 16.9881 -250 0
475 -28.0028 7.45289 1.4 50.1472 -250 0
476 -27.2528 7.45289 1.4 49.423 -250 0
477 -26.5028 7.45289 1.4 48.6995 -250 0
478 -25.7528 7.45289 1.4 47.9769 -250 0
479 -25.0028 7.45289 1.4 47.2552 -250 0
480 -24.2528 7.45289 1.4 46.5343 -250 0
481 -23.5028 7.45289 1.4 45.8144 -250 0
482 -22.7528 7.45289 1.4 45.0955 -250 0
483 -22.0028 7.45289 1.4 44.3775 -250 0
484 -21.2528 7.45289 1.4 43.6607 -250 0
485 -20.5028 7.45289 1.4 42.945 -181.805 -92.0912
486 -19.7528 7.45289 1.4 42.2305 -148.482 -79.6964
487 -19.0028 7.45289 1.4 41.5172 -148.13 -73.7447
488 -18.2528 7.45289 1.4 40.8053 -250 0
489 -17.5028 7.45289 1.4 40.0947 -250 0
490 -16.7528 7.45289 1.4 39.3856 -250 0
491 -16.0028 7.45289 1.4 38.6781 -250 0
492 -15.2528 7.45289 1.4 37.9722 -250 0
493 -14.5028 7.45289 1.4 37.268 -250 0
494 -13.7528 7.45289 1.4 36.5656 -105.145 -83.8615
495 -13.0028 7.45289 1.4 35.8651 -250 0
496 -12.2528 7.45289 1.4 35.1667 -250 0
497 -11.5028 7.45289 1.4 34.4705 -117.294 -128.169
498 -10.7528 7.45289 1.4 33.7766 -250 0
499 -10.0028 7.45289 1.4 33.0851 -250 0
500 -9.25282 7.45289 1.4 32.3962 -99.0301 -19.8061
501 -8.50282 7.45289 1.4 31.7101 -88.5114 142.418
502 -7.75282 7.45289 1.4 31.0269 -116.101 -25.8295
503 -7.00282 7.45289 1.4 30.347 -250 0
504 -6.25282 7.45289 1.4 29.6703 -250 0
505 -5.50282 7.45289 1.4 28.9973 -250 0
506 -4.75282 7.45289 1.4 28.3282 -250 0
507 -4.00282 7.45289 1.4 27.6632 -100.878 -73.2569
508 -3.25282 7.45289 1.4 27.0026 -107.2 114.468
509 -2.50282 7.45289 1.4 26.3469 -87.3325 -82.6783
510 -1.75282 7.45289 1.4 25.6963 -99.1751 -51.8399
511 -1.00282 7.45289 1.4 25.0513 -250 0
512 -0.25282 7.45289 1.4 24.4122 -250 0
513 0.49718 7.45289 1.4 23.7797 -93.2738 -41.1999
514 1.24718 7.45289 1.4 23.1541 -85.9646 86.3083
515 1.99718 7.45289 1.4 22.5362 -90.068 19.4276
516 2.74718 7.45289 1.4 21.9265 -97.2982 8.27356
517 3.49718 7.45289 1.4 21.3257 -250 0
518 4.24718 7.45289 1.4 20.7347 -117.604 -179.567
519 4.99718 7.45289 1.4 20.1543 -250 0
520 5.74718 7.45289 1.4 19.5853 -90.8085 -65.5532
521 6.49718 7.45289 1.4 19.029 -62.7251 174.946
522 7.24718 7.45289 1.4 18.4863 -63.9214 -15.3045
523 7.99718 7.45289 1.4 17.9585 -64.4332 98.6974
524 8.74718 7.45289 1.4 17.4471 -250 0
525 9.49718 7.45289 1.4 16.9534 -250 0
526 10.2472 7.45289 1.4 16.479 -81.3744 -62.1945
527 10.9972 7.45289 1.4 16.0257 -250 0
528 11.7472 7.45289 1.4 15.5953 -62.4331 -167.57
529 12.4972 7.45289 1.4 15.1898 -69.4666 -116.984
530 13.2472 7.45289 1.4 14.8112 -71.7744 98.302
531 13.9972 7.45289 1.4 14.4616 -250 0
532 14.7472 7.45289 1.4 14.1432 -250 0
533 15.4972 7.45289 1.4 13.858 -250 0
534 16.2472 7.45289 1.4 13.6083 -250 0
535 16.9972 7.45289 1.4 13.396 -84.631 168.589
536 17.7472 7.45289 1.4 13.2228 -68.0685 72.6481
537 18.4972 7.45289 1.4 13.0904 -69.53 -43.2255
538 19.2472 7.45289 1.4 13 -74.0112 25.6792
539 19.9972 7.45289 1.4 12.9525 -79.3501 -45.4371
540 20.7472 7.45289 1.4 12.9483 -70.5476 -104.176
541 21.4972 7.45289 1.4 12.9874 -63.3019 -138.287
542 22.2472 7.45289 1.4 13.0696 -58.0626 176.921
543 22.9972 7.45289 1.4 13.194 -57.8769 65.855
544 23.7472 7.45289 1.4 13.3593 -68.0256 35.9149
545 24.4972 7.45289 1.4 13.5642 -63.738 97.7876
546 25.2472 7.45289 1.4 13.8068 -98.2942 -159.85
547 25.9972 7.45289 1.4 14.0853 -65.968 -105.945
548 26.7472 7.45289 1.4 14.3974 -70.2559 -71.0205
549 27.4972 7.45289 1.4 14.7412 -250 0
550 28.2472 7.45289 1.4 15.1143 -250 0
551 28.9972 7.45289 1.4 15.5148 -250 0
552 29.7472 7.45289 1.4 15.9405 -250 0
553 30.4972 7.45289 1.4 16.3895 -250 0
554 -28.0028 8.20289 1.4 49.9588 -250 0
555 -27.2528 8.20289 1.4 49.2318 -250 0
556 -26.5028 8.20289 1.4 48.5056 -250 0
557 -25.7528 8.20289 1.4 47.78 -250 0
558 -25.0028 8.20289 1.4 47.0553 -250 0
559 -24.2528 8.20289 1.4 46.3313 -250 0
560 -23.5028 8.20289 1.4 45.6082 -250 0
561 -22.7528 8.20289 1.4 44.8859 -250 0
562 -22.0028 8.20289 1.4 44.1646 -250 0
563 -21.2528 8.20289 1.4 43.4442 -250 0
564 -20.5028 8.20289 1.4 42.7249 -250 0
565 -19.7528 8.20289 1.4 42.0067 -155.89 -127.29
566 -19.0028 8.20289 1.4 41.2895 -159.064 -115.294
567 -18.2528 8.20289 1.4 40.5736 -250 0
568 -17.5028 8.20289 1.4 39.8589 -187.375 -98.8756
569 -16.7528 8.20289 1.4 39.1455 -250 0
570 -16.0028 8.20289 1.4 38.4336 -250 0
571 -15.2528 8.20289 1.4 37.7231 -250 0
572 -14.5028 8.20289 1.4 37.0141 -250 0
573 -13.7528 8.20289 1.4 36.3069 -116.763 39.5546
574 -13.0028 8.20289 1.4 35.6013 -92.7604 139.517
575 -12.2528 8.20289 1.4 34.8976 -98.2846 -170.591
576 -11.5028 8.20289 1.4 34.1959 -250 0
577 -10.7528 8.20289 1.4 33.4963 -250 0
578 -10.0028 8.20289 1.4 32.7989 -250 0
579 -9.25282 8.20289 1.4 32.1039 -250 0
580 -8.50282 8.20289 1.4 31.4114 -110.888 -163.344
581 -7.75282 8.20289 1.4 30.7216 -83.6031 -4.68965
582 -7.00282 8.20289 1.4 30.0347 -112.823 -173.57
583 -6.25282 8.20289 1.4 29.3509 -250 0
584 -5.50282 8.20289 1.4 28.6704 -250 0
585 -4.75282 8.20289 1.4 27.9934 -250 0
586 -4.00282 8.20289 1.4 27.3203 -250 0
587 -3.25282 8.20289 1.4 26.6512 -86.0066 161.062
588 -2.50282 8.20289 1.4 25.9866 -102.19 -77.3764
589 -1.75282 8.20289 1.4 25.3268 -250 0
590 -1.00282 8.20289 1.4 24.6721 -250 0
591 -0.25282 8.20289 1.4 24.023 -250 0
592 0.49718 8.20289 1.4 23.3799 -250 0
593 1.24718 8.20289 1.4 22.7433 -99.7551 102.735
594 1.99718 8.20289 1.4 22.1139 -85.0537 -36.1566
595 2.74718 8.20289 1.4 21.4923 -90.6309 -91.6284
596 3.49718 8.20289 1.4 20.879 -107.702 -87.3804
597 4.24718 8.20289 1.4 20.275 -116.918 -125.5
598 4.99718 8.20289 1.4 19.681 -250 0
599 5.74718 8.20289 1.4 19.0979 -250 0
600 6.49718 8.20289 1.4 18.5269 -87.3498 156.098
601 7.24718 8.20289 1.4 17.9691 -63.6164 69.2521
602 7.99718 8.20289 1.4 17.4257 -65.7628 -112.564
603 8.74718 8.20289 1.4 16.8981 -64.4852 -5.05934
604 9.49718 8.20289 1.4 16.3879 -250 0
605 10.2472 8.20289 1.4 15.8966 -250 0
606 10.9972 8.20289 1.4 15.4262 -250 0
607 11.7472 8.20289 1.4 14.9786 -68.8984 97.0518
608 12.4972 8.20289 1.4 14.556 -68.1232 -16.8026
609 13.2472 8.20289 1.4 14.1604 -250 0
610 13.9972 8.20289 1.4 13.7943 -250 0
611 14.7472 8.20289 1.4 13.4601 -250 0
612 15.4972 8.20289 1.4 13.1602 -250 0
613 16.2472 8.20289 1.4 12.897 -250 0
614 16.9972 8.20289 1.4 12.6727 -78.0295 -42.3238
615 17.7472 8.20289 1.4 12.4895 -63.7157 -2.95015
616 18.4972 8.20289 1.4 12.3493 -65.6077 101.746
617 19.2472 8.20289 1.4 12.2534 -71.1419 -175.575
618 19.9972 8.20289 1.4 12.2029 -70.2975 -106.29
619 20.7472 8.20289 1.4 12.1985 -60.6012 -43.8281
620 21.4972 8.20289 1.4 12.2401 -59.2479 0.443951
621 22.2472 8.20289 1.4 12.3272 -56.2076 -91.9601
622 22.9972 8.20289 1.4 12.459 -67.1744 114.085
623 23.7472 8.20289 1.4 12.634 -66.5911 -2.38338
624 24.4972 8.20289 1.4 12.8504 -250 0
625 25.2472 8.20289 1.4 13.1063 -104.946 160.323
626 25.9972 8.20289 1.4 13.3993 -76.4735 -143.712
627 26.7472 8.20289 1.4 13.727 -68.4573 8.47496
628 27.4972 8.20289 1.4 14.0871 -250 0
629 28.2472 8.20289 1.4 14.4772 -250 0
630 28.9972 8.20289 1.4 14.8948 -250 0
631 29.7472 8.20289 1.4 15.3377 -250 0
632 30.4972 8.20289 1.4 15.8039 -250 0
633 -28.0028 8.95289 1.4 49.7811 -250 0
634 -27.2528 8.95289 1.4 49.0514 -250 0
635 -26.5028 8.95289 1.4 48.3225 -250 0
636 -25.7528 8.95289 1.4 47.5941 -250 0
637 -25.0028 8.95289 1.4 46.8665 -250 0
638 -24.2528 8.95289 1.4 46.1396 -250 0
639 -23.5028 8.95289 1.4 45.4134 -250 0
640 -22.7528 8.95289 1.4 44.688 -250 0
641 -22.0028 8.95289 1.4 43.9634 -250 0
642 -21.2528 8.95289 1.4 43.2397 -250 0
643 -20.5028 8.95289 1.4 42.5169 -250 0
644 -19.7528 8.95289 1.4 41.7951 -250 0
645 -19.0028 8.95289 1.4 41.0743 -250 0
646 -18.2528 8.95289 1.4 40.3545 -250 0
647 -17.5028 8.95289 1.4 39.6359 -250 0
648 -16.7528 8.95289 1.4 38.9184 -250 0
649 -16.0028 8.95289 1.4 38.2022 -250 0
650 -15.2528 8.95289 1.4 37.4873 -250 0
651 -14.5028 8.95289 1.4 36.7739 -250 0
652 -13.7528 8.95289 1.4 36.0619 -250 0
653 -13.0028 8.95289 1.4 35.3514 -250 0
654 -12.2528 8.95289 1.4 34.6427 -93.0089 -110.485
655 -11.5028 8.95289 1.4 33.9357 -250 0
656 -10.7528 8.95289 1.4 33.2306 -113.675 101.323
657 -10.0028 8.95289 1.4 32.5275 -117.625 173.608
658 -9.25282 8.95289 1.4 31.8266 -111.208 27.1974
659 -8.50282 8.95289 1.4 31.1279 -250 0
660 -7.75282 8.95289 1.4 30.4317 -250 0
661 -7.00282 8.95289 1.4 29.7381 -86.7413 -79.147
662 -6.25282 8.95289 1.4 29.0473 -110.028 -5.87985
663 -5.50282 8.95289 1.4 28.3595 -250 0
664 -4.75282 8.95289 1.4 27.6749 -250 0
665 -4.00282 8.95289 1.4 26.9938 -250 0
666 -3.25282 8.95289 1.4 26.3165 -250 0
667 -2.50282 8.95289 1.4 25.6432 -250 0
668 -1.75282 8.95289 1.4 24.9743 -105.671 24.2864
669 -1.00282 8.95289 1.4 24.3101 -108.008 -168.884
670 -0.25282 8.95289 1.4 23.6511 -250 0
671 0.49718 8.95289 1.4 22.9976 -98.9775 -6.5003
672 1.24718 8.95289 1.4 22.3502 -105.41 -174.248
673 1.99718 8.95289 1.4 21.7094 -104.382 139.509
674 2.74718 8.95289 1.4 21.0758 -85.1176 -121.998
675 3.49718 8.95289 1.4 20.45 -107.925 -118.649
676 4.24718 8.95289 1.4 19.8329 -116.141 -72.005
677 4.99718 8.95289 1.4 19.2253 -250 0
678 5.74718 8.95289 1.4 18.628 -87.1485 -46.137
679 6.49718 8.95289 1.4 18.0421 -250 0
680 7.24718 8.95289 1.4 17.4688 -93.7425 17.3394
681 7.99718 8.95289 1.4 16.9093 -63.4924 -36.5111
682 8.74718 8.95289 1.4 16.3651 -64.4007 145.967
683 9.49718 8.95289 1.4 15.8377 -62.9848 -106.67
684 10.2472 8.95289 1.4 15.3288 -250 0
685 10.9972 8.95289 1.4 14.8405 -71.3094 46.8959
686 11.7472 8.95289 1.4 14.3746 -73.3569 -102.186
687 12.4972 8.95289 1.4 13.9336 -62.2363 95.2614
688 13.2472 8.95289 1.4 13.5199 -73.3715 -171.3
689 13.9972 8.95289 1.4 13.136 -250 0
690 14.7472 8.95289 1.4 12.7845 -250 0
691 15.4972 8.95289 1.4 12.4684 -250 0
692 16.2472 8.95289 1.4 12.1902 -250 0
693 16.9972 8.95289 1.4 11.9527 -250 0
694 17.7472 8.95289 1.4 11.7584 -70.4776 67.3018
695 18.4972 8.95289 1.4 11.6093 -62.3037 -94.9282
696 19.2472 8.95289 1.4 11.5072 -71.1614 78.2101
697 19.9972 8.95289 1.4 11.4535 -78.822 -104.414
698 20.7472 8.95289 1.4 11.4487 -59.714 131.914
699 21.4972 8.95289 1.4 11.493 -53.461 77.6095
700 22.2472 8.95289 1.4 11.5858 -59.474 -53.6948
701 22.9972 8.95289 1.4 11.7259 -66.4145 -126.935
702 23.7472 8.95289 1.4 11.9117 -91.3473 168.983
703 24.4972 8.95289 1.4 12.141 -61.2995 -131.963
704 25.2472 8.95289 1.4 12.4115 -84.5326 -50.9923
705 25.9972 8.95289 1.4 12.7205 -70.8939 -155.224
706 26.7472 8.95289 1.4 13.0653 -111.448 -138.371
707 27.4972 8.95289 1.4 13.4431 -250 0
708 28.2472 8.95289 1.4 13.8513 -250 0
709 28.9972 8.95289 1.4 14.2872 -250 0
710 29.7472 8.95289 1.4 14.7484 -250 0
711 30.4972 8.95289 1.4 15.2326 -250 0
712 -28.0028 9.70289 1.4 49.614 -250 0
713 -27.2528 9.70289 1.4 48.8819 -250 0
714 -26.5028 9.70289 1.4 48.1503 -250 0
715 -25.7528 9.70289 1.4 47.4194 -250 0
716 -25.0028 9.70289 1.4 46.689 -250 0
717 -24.2528 9.70289 1.4 45.9593 -250 0
718 -23.5028 9.70289 1.4 45.2302 -250 0
719 -22.7528 9.70289 1.4 44.5018 -250 0
720 -22.0028 9.70289 1.4 43.7742 -250 0
721 -21.2528 9.70289 1.4 43.0473 -250 0
722 -20.5028 9.70289 1.4 42.3212 -250 0
723 -19.7528 9.70289 1.4 41.596 -250 0
724 -19.0028 9.70289 1.4 40.8716 -250 0
725 -18.2528 9.70289 1.4 40.1483 -250 0
726 -17.5028 9.70289 1.4 39.4259 -250 0
727 -16.7528 9.70289 1.4 38.7045 -250 0
728 -16.0028 9.70289 1.4 37.9843 -250 0
729 -15.2528 9.70289 1.4 37.2652 -250 0
730 -14.5028 9.70289 1.4 36.5474 -250 0
731 -13.7528 9.70289 1.4 35.8309 -250 0
732 -13.0028 9.70289 1.4 35.1158 -250 0
733 -12.2528 9.70289 1.4 34.4022 -250 0
734 -11.5028 9.70289 1.4 33.6902 -93.2032 -3.52719
735 -10.7528 9.70289 1.4 32.9798 -111.166 138.492
736 -10.0028 9.70289 1.4 32.2713 -250 0
737 -9.25282 9.70289 1.4 31.5646 -103.863 171.745
738 -8.50282 9.70289 1.4 30.86 -106.794 -61.41
739 -7.75282 9.70289 1.4 30.1576 -250 0
740 -7.00282 9.70289 1.4 29.4576 -250 0
741 -6.25282 9.70289 1.4 28.76 -86.6042 166.298
742 -5.50282 9.70289 1.4 28.0652 -250 0
743 -4.75282 9.70289 1.4 27.3733 -104.454 -128.257
744 -4.00282 9.70289 1.4 26.6845 -250 0
745 -3.25282 9.70289 1.4 25.9991 -250 0
746 -2.50282 9.70289 1.4 25.3174 -250 0
747 -1.75282 9.70289 1.4 24.6396 -250 0
748 -1.00282 9.70289 1.4 23.9662 -114.463 -86.8748
749 -0.25282 9.70289 1.4 23.2974 -99.4768 68.0366
750 0.49718 9.70289 1.4 22.6337 -105.286 75.2704
751 1.24718 9.70289 1.4 21.9756 -250 0
752 1.99718 9.70289 1.4 21.3235 -250 0
753 2.74718 9.70289 1.4 20.6781 -106.596 146.444
754 3.49718 9.70289 1.4 20.0399 -87.1075 168.547
755 4.24718 9.70289 1.4 19.4098 -86.5306 -140.642
756 4.99718 9.70289 1.4 18.7885 -250 0
757 5.74718 9.70289 1.4 18.1768 -250 0
758 6.49718 9.70289 1.4 17.5759 -250 0
759 7.24718 9.70289 1.4 16.9869 -250 0
760 7.99718 9.70289 1.4 16.411 -84.6884 151.862
761 8.74718 9.70289 1.4 15.8496 -64.5362 -150.668
762 9.49718 9.70289 1.4 15.3045 -63.9542 40.6963
763 10.2472 9.70289 1.4 14.7773 -69.3916 -55.9829
764 10.9972 9.70289 1.4 14.2701 -76.5161 162.521
765 11.7472 9.70289 1.4 13.785 -250 0
766 12.4972 9.70289 1.4 13.3245 -73.5359 -40.7834
767 13.2472 9.70289 1.4 12.8912 -68.3117 -65.2439
768 13.9972 9.70289 1.4 12.488 -250 0
769 14.7472 9.70289 1.4 12.1178 -250 0
770 15.4972 9.70289 1.4 11.7837 -250 0
771 16.2472 9.70289 1.4 11.489 -250 0
772 16.9972 9.70289 1.4 11.2367 -250 0
773 17.7472 9.70289 1.4 11.0297 -69.3149 109.164
774 18.4972 9.70289 1.4 10.8706 -71.7257 21.3021
775 19.2472 9.70289 1.4 10.7616 -73.2649 14.6458
776 19.9972 9.70289 1.4 10.7041 -59.6349 -140.374
777 20.7472 9.70289 1.4 10.699 -53.1377 -99.4975
778 21.4972 9.70289 1.4 10.7464 -60.3027 133.33
779 22.2472 9.70289 1.4 10.8455 -67.4946 158.562
780 22.9972 9.70289 1.4 10.9951 -80.9784 -169.125
781 23.7472 9.70289 1.4 11.193 -58.6477 105.844
782 24.4972 9.70289 1.4 11.4367 -62.8804 75.921
783 25.2472 9.70289 1.4 11.7235 -68.473 76.6405
784 25.9972 9.70289 1.4 12.0502 -100.708 164.632
785 26.7472 9.70289 1.4 12.4136 -108.843 126.647
786 27.4972 9.70289 1.4 12.8107 -250 0
787 28.2472 9.70289 1.4 13.2384 -250 0
788 28.9972 9.70289 1.4 13.6938 -250 0
789 29.7472 9.70289 1.4 14.1743 -250 0
790 30.4972 9.70289 1.4 14.6775 -250 0
791 -28.0028 10.4529 1.4 49.4577 -250 0
792 -27.2528 10.4529 1.4 48.7233 -250 0
793 -26.5028 10.4529 1.4 47.9893 -250 0
794 -25.7528 10.4529 1.4 47.2559 -250 0
795 -25.0028 10.4529 1.4 46.5229 -250 0
796 -24.2528 10.4529 1.4 45.7905 -250 0
797 -23.5028 10.4529 1.4 45.0587 -250 0
798 -22.7528 10.4529 1.4 44.3275 -250 0
799 -22.0028 10.4529 1.4 43.597 -250 0
800 -21.2528 10.4529 1.4 42.8671 -250 0
801 -20.5028 10.4529 1.4 42.1379 -250 0
802 -19.7528 10.4529 1.4 41.4095 -250 0
803 -19.0028 10.4529 1.4 40.6818 -250 0
804 -18.2528 10.4529 1.4 39.955 -250 0
805 -17.5028 10.4529 1.4 39.2291 -250 0
806 -16.7528 10.4529 1.4 38.504 -250 0
807 -16.0028 10.4529 1.4 37.78 -250 0
808 -15.2528 10.4529 1.4 37.0569 -250 0
809 -14.5028 10.4529 1.4 36.335 -250 0
810 -13.7528 10.4529 1.4 35.6142 -250 0
811 -13.0028 10.4529 1.4 34.8947 -250 0
812 -12.2528 10.4529 1.4 34.1765 -250 0
813 -11.5028 10.4529 1.4 33.4596 -250 0
814 -10.7528 10.4529 1.4 32.7443 -93.3938 103.383
815 -10.0028 10.4529 1.4 32.0305 -250 0
816 -9.25282 10.4529 1.4 31.3185 -250 0
817 -8.50282 10.4529 1.4 30.6082 -250 0
818 -7.75282 10.4529 1.4 29.8999 -250 0
819 -7.00282 10.4529 1.4 29.1936 -250 0
820 -6.25282 10.4529 1.4 28.4896 -250 0
821 -5.50282 10.4529 1.4 27.7881 -86.2742 58.6523
822 -4.75282 10.4529 1.4 27.0891 -250 0
823 -4.00282 10.4529 1.4 26.3929 -250 0
824 -3.25282 10.4529 1.4 25.6997 -250 0
825 -2.50282 10.4529 1.4 25.0098 -250 0
826 -1.75282 10.4529 1.4 24.3235 -250 0
827 -1.00282 10.4529 1.4 23.641 -250 0
828 -0.25282 10.4529 1.4 22.9628 -114.208 154.12
829 0.49718 10.4529 1.4 22.2891 -250 0
830 1.24718 10.4529 1.4 21.6205 -250 0
831 1.99718 10.4529 1.4 20.9574 -250 0
832 2.74718 10.4529 1.4 20.3003 -103.277 49.3434
833 3.49718 10.4529 1.4 19.6499 -250 0
834 4.24718 10.4529 1.4 19.0068 -114.17 32.0515
835 4.99718 10.4529 1.4 18.3719 -250 0
836 5.74718 10.4529 1.4 17.7459 -250 0
837 6.49718 10.4529 1.4 17.1299 -250 0
838 7.24718 10.4529 1.4 16.525 -250 0
839 7.99718 10.4529 1.4 15.9324 -250 0
840 8.74718 10.4529 1.4 15.3536 -89.5844 142.545
841 9.49718 10.4529 1.4 14.7901 -64.5751 103.669
842 10.2472 10.4529 1.4 14.2439 -75.0893 60.7282
843 10.9972 10.4529 1.4 13.717 -250 0
844 11.7472 10.4529 1.4 13.2116 -250 0
845 12.4972 10.4529 1.4 12.7304 -250 0
846 13.2472 10.4529 1.4 12.2761 -71.5011 7.1789
847 13.9972 10.4529 1.4 11.852 -250 0
848 14.7472 10.4529 1.4 11.4613 -250 0
849 15.4972 10.4529 1.4 11.1075 -250 0
850 16.2472 10.4529 1.4 10.7943 -250 0
851 16.9972 10.4529 1.4 10.5254 -250 0
852 17.7472 10.4529 1.4 10.3041 -62.7237 -123.395
853 18.4972 10.4529 1.4 10.1336 -69.7918 139.176
854 19.2472 10.4529 1.4 10.0166 -68.7272 -149.536
855 19.9972 10.4529 1.4 9.9548 -60.9152 31.6564
856 20.7472 10.4529 1.4 9.94933 -53.867 -33.5358
857 21.4972 10.4529 1.4 10.0003 -64.3483 -47.4403
858 22.2472 10.4529 1.4 10.1067 -78.0136 -169.323
859 22.9972 10.4529 1.4 10.2671 -67.1551 8.56661
860 23.7472 10.4529 1.4 10.4787 -60.8549 -34.6457
861 24.4972 10.4529 1.4 10.7387 -64.0358 -118.838
862 25.2472 10.4529 1.4 11.0436 -72.7538 119.751
863 25.9972 10.4529 1.4 11.3898 -84.6207 -80.815
864 26.7472 10.4529 1.4 11.7736 -103.59 -28.0749
865 27.4972 10.4529 1.4 12.1915 -99.5078 78.815
866 28.2472 10.4529 1.4 12.6402 -93.9933 -94.3179
867 28.9972 10.4529 1.4 13.1164 -250 0
868 29.7472 10.4529 1.4 13.6173 -250 0
869 30.4972 10.4529 1.4 14.1403 -250 0
870 -28.0028 11.2029 1.4 49.3124 -250 0
871 -27.2528 11.2029 1.4 48.5758 -250 0
872 -26.5028 11.2029 1.4 47.8395 -250 0
873 -25.7528 11.2029 1.4 47.1037 -250 0
874 -25.0028 11.2029 1.4 46.3684 -250 0
875 -24.2528 11.2029 1.4 45.6335 -250 0
876 -23.5028 11.2029 1.4 44.8992 -250 0
877 -22.7528 11.2029 1.4 44.1653 -250 0
878 -22.0028 11.2029 1.4 43.432 -250 0
879 -21.2528 11.2029 1.4 42.6993 -88.7698 -29.7386
880 -20.5028 11.2029 1.4 41.9672 -250 0
881 -19.7528 11.2029 1.4 41.2358 -250 0
882 -19.0028 11.2029 1.4 40.505 -250 0
883 -18.2528 11.2029 1.4 39.775 -90.7304 -106.292
884 -17.5028 11.2029 1.4 39.0457 -250 0
885 -16.7528 11.2029 1.4 38.3172 -250 0
886 -16.0028 11.2029 1.4 37.5895 -88.2181 134.832
887 -15.2528 11.2029 1.4 36.8628 -74.7394 152.326
888 -14.5028 11.2029 1.4 36.1369 -250 0
889 -13.7528 11.2029 1.4 35.4121 -250 0
890 -13.0028 11.2029 1.4 34.6884 -97.0782 -19.1967
891 -12.2528 11.2029 1.4 33.9658 -250 0
892 -11.5028 11.2029 1.4 33.2444 -250 0
893 -10.7528 11.2029 1.4 32.5244 -250 0
894 -10.0028 11.2029 1.4 31.8057 -250 0
895 -9.25282 11.2029 1.4 31.0884 -94.6928 -147.449
896 -8.50282 11.2029 1.4 30.3728 -250 0
897 -7.75282 11.2029 1.4 29.6589 -250 0
898 -7.00282 11.2029 1.4 28.9468 -87.2262 110.058
899 -6.25282 11.2029 1.4 28.2366 -89.1049 98.4272
900 -5.50282 11.2029 1.4 27.5286 -81.3123 -12.3715
901 -4.75282 11.2029 1.4 26.8228 -82.4741 20.3304
902 -4.00282 11.2029 1.4 26.1195 -250 0
903 -3.25282 11.2029 1.4 25.4189 -250 0
904 -2.50282 11.2029 1.4 24.7212 -250 0
905 -1.75282 11.2029 1.4 24.0266 -250 0
906 -1.00282 11.2029 1.4 23.3354 -78.8799 -84.3206
907 -0.25282 11.2029 1.4 22.6481 -76.8853 -88.6805
908 0.49718 11.2029 1.4 21.9648 -78.7554 -18.9761
909 1.24718 11.2029 1.4 21.2859 -86.3547 74.4392
910 1.99718 11.2029 1.4 20.6121 -86.1511 137.354
911 2.74718 11.2029 1.4 19.9436 -71.7227 161.45
912 3.49718 11.2029 1.4 19.2812 -70.534 -26.6625
913 4.24718 11.2029 1.4 18.6254 -77.4562 74.46
914 4.99718 11.2029 1.4 17.977 -75.7424 77.3612
915 5.74718 11.2029 1.4 17.3367 -81.6113 178.594
916 6.49718 11.2029 1.4 16.7057 -82.7548 31.8165
917 7.24718 11.2029 1.4 16.0848 -80.314 -68.6649
918 7.99718 11.2029 1.4 15.4753 -74.1256 66.3136
919 8.74718 11.2029 1.4 14.8787 -75.7787 -73.9089
920 9.49718 11.2029 1.4 14.2966 -62.1193 69.9538
921 10.2472 11.2029 1.4 13.7308 -77.486 -110.674
922 10.9972 11.2029 1.4 13.1833 -72.3736 -155.708
923 11.7472 11.2029 1.4 12.6567 -250 0
924 12.4972 11.2029 1.4 12.1535 -78.1377 -47.1478
925 13.2472 11.2029 1.4 11.6768 -82.0719 -114.743
926 13.9972 11.2029 1.4 11.2301 -112.678 71.5459
927 14.7472 11.2029 1.4 10.8169 -83.697 22.0098
928 15.4972 11.2029 1.4 10.4414 -58.4627 -145.729
929 16.2472 11.2029 1.4 10.1076 -54.5545 -50.4233
930 16.9972 11.2029 1.4 9.81983 -55.8022 174.475
931 17.7472 11.2029 1.4 9.58228 -64.2464 90.4237
932 18.4972 11.2029 1.4 9.39874 -80.233 91.3046
933 19.2472 11.2029 1.4 9.2724 -58.6815 135.004
934 19.9972 11.2029 1.4 9.20562 -51.5696 140.334
935 20.7472 11.2029 1.4 9.1997 -58.694 58.5695
936 21.4972 11.2029 1.4 9.25476 -61.5838 -123.388
937 22.2472 11.2029 1.4 9.36972 -72.4338 101.131
938 22.9972 11.2029 1.4 9.54242 -58.8333 -140.802
939 23.7472 11.2029 1.4 9.76979 -64.4953 172.932
940 24.4972 11.2029 1.4 10.0481 -83.5973 175.568
941 25.2472 11.2029 1.4 10.3733 -68.3443 119.603
942 25.9972 11.2029 1.4 10.7411 -70.7879 22.3894
943 26.7472 11.2029 1.4 11.1473 -250 0
944 27.4972 11.2029 1.4 11.5879 -101.412 176.021
945 28.2472 11.2029 1.4 12.059 -71.1182 126.467
946 28.9972 11.2029 1.4 12.5573 -250 0
947 29.7472 11.2029 1.4 13.0797 -250 0
948 30.4972 11.2029 1.4 13.6233 -250 0
949 -28.0028 11.9529 1.4 49.1781 -250 0
950 -27.2528 11.9529 1.4 48.4394 -250 0
951 -26.5028 11.9529 1.4 47.7011 -250 0
952 -25.7528 11.9529 1.4 46.9631 -250 0
953 -25.0028 11.9529 1.4 46.2255 -250 0
954 -24.2528 11.9529 1.4 45.4883 -250 0
955 -23.5028 11.9529 1.4 44.7516 -250 0
956 -22.7528 11.9529 1.4 44.0153 -250 0
957 -22.0028 11.9529 1.4 43.2795 -250 0
958 -21.2528 11.9529 1.4 42.5441 -84.9077 148.453
959 -20.5028 11.9529 1.4 41.8093 -94.2537 72.8911
960 -19.7528 11.9529 1.4 41.0751 -98.285 135.931
961 -19.0028 11.9529 1.4 40.3414 -114.618 -29.3478
962 -18.2528 11.9529 1.4 39.6083 -114.355 -26.7737
963 -17.5028 11.9529 1.4 38.8759 -250 0
964 -16.7528 11.9529 1.4 38.1441 -100.69 10.7621
965 -16.0028 11.9529 1.4 37.4131 -87.3838 -35.2112
966 -15.2528 11.9529 1.4 36.6829 -94.8532 16.0593
967 -14.5028 11.9529 1.4 35.9534 -79.6032 99.3014
968 -13.7528 11.9529 1.4 35.2249 -128.5 33.5518
969 -13.0028 11.9529 1.4 34.4972 -106.736 -27.096
970 -12.2528 11.9529 1.4 33.7705 -102.9 102.251
971 -11.5028 11.9529 1.4 33.0449 -102.697 157.327
972 -10.7528 11.9529 1.4 32.3203 -90.7435 -104.079
973 -10.0028 11.9529 1.4 31.597 -102.277 -92.7209
974 -9.25282 11.9529 1.4 30.8749 -102.058 -37.856
975 -8.50282 11.9529 1.4 30.1542 -101.834 16.9258
976 -7.75282 11.9529 1.4 29.435 -101.604 71.6169
977 -7.00282 11.9529 1.4 28.7173 -250 0
978 -6.25282 11.9529 1.4 28.0014 -250 0
979 -5.50282 11.9529 1.4 27.2872 -82.6004 71.9162
980 -4.75282 11.9529 1.4 26.575 -91.5618 63.5957
981 -4.00282 11.9529 1.4 25.865 -77.5514 164.655
982 -3.25282 11.9529 1.4 25.1573 -82.1534 -81.5848
983 -2.50282 11.9529 1.4 24.4521 -250 0
984 -1.75282 11.9529 1.4 23.7497 -77.8616 -158.836
985 -1.00282 11.9529 1.4 23.0502 -73.9213 101.332
986 -0.25282 11.9529 1.4 22.3541 -71.7619 104.267
987 0.49718 11.9529 1.4 21.6615 -72.3165 81.7967
988 1.24718 11.9529 1.4 20.9729 -73.2489 28.8785
989 1.99718 11.9529 1.4 20.2886 -80.0574 -80.6376
990 2.74718 11.9529 1.4 19.6092 -82.5317 60.7896
991 3.49718 11.9529 1.4 18.935 -75.2935 -59.7536
992 4.24718 11.9529 1.4 18.2668 -83.9501 28.9725
993 4.99718 11.9529 1.4 17.6052 -75.1158 -119.665
994 5.74718 11.9529 1.4 16.9509 -76.2276 -6.22667
995 6.49718 11.9529 1.4 16.3049 -250 0
996 7.24718 11.9529 1.4 15.6681 -87.0577 -27.6506
997 7.99718 11.9529 1.4 15.0418 -77.4013 122.213
998 8.74718 11.9529 1.4 14.4273 -76.6446 -83.8455
999 9.49718 11.9529 1.4 13.8262 -71.6956 23.8906
1000 10.2472 11.9529 1.4 13.2403 -85.8493 -62.9934
1001 10.9972 11.9529 1.4 12.6717 -71.3543 -111.322
1002 11.7472 11.9529 1.4 12.1228 -71.5692 -19.2918
1003 12.4972 11.9529 1.4 11.5965 -72.13 90.4558
1004 13.2472 11.9529 1.4 11.0959 -102.673 93.3005
1005 13.9972 11.9529 1.4 10.6247 -100.19 88.9651
1006 14.7472 11.9529 1.4 10.1871 -81.0295 104.152
1007 15.4972 11.9529 1.4 9.78736 -81.4354 -78.9593
1008 16.2472 11.9529 1.4 9.43045 -68.3024 68.475
1009 16.9972 11.9529 1.4 9.12138 -52.5912 36.3437
1010 17.7472 11.9529 1.4 8.86513 -56.0905 69.2132
1011 18.4972 11.9529 1.4 8.66641 -84.0214 85.8034
1012 19.2472 11.9529 1.4 8.52923 -52.1546 -32.3939
1013 19.9972 11.9529 1.4 8.45658 -54.6608 -154.131
1014 20.7472 11.9529 1.4 8.45014 -63.4712 114.657
1015 21.4972 11.9529 1.4 8.51005 -68.3178 -31.6982
1016 22.2472 11.9529 1.4 8.63493 -58.6098 99.7695
1017 22.9972 11.9529 1.4 8.82203 -62.6334 64.5774
1018 23.7472 11.9529 1.4 9.06748 -75.2136 -90.0879
1019 24.4972 11.9529 1.4 9.36671 -72.4389 59.4452
1020 25.2472 11.9529 1.4 9.71475 -69.5181 -6.96778
1021 25.9972 11.9529 1.4 10.1066 -67.3057 3.24614
1022 26.7472 11.9529 1.4 10.5372 -73.3701 -90.8122
1023 27.4972 11.9529 1.4 11.0023 -75.8839 -24.5535
1024 28.2472 11.9529 1.4 11.4974 -69.5431 37.9956
1025 28.9972 11.9529 1.4 12.019 -250 0
1026 29.7472 11.9529 1.4 12.5638 -250 0
1027 30.4972 11.9529 1.4 13.1287 -250 0
1028 -28.0028 12.7029 1.4 49.0549 -122.623 40.1537
1029 -27.2528 12.7029 1.4 48.3143 -131.327 124.04
1030 -26.5028 12.7029 1.4 47.574 -102.458 -79.1309
1031 -25.7528 12.7029 1.4 46.834 -134.991 138.656
1032 -25.0028 12.7029 1.4 46.0944 -118.558 -17.5284
1033 -24.2528 12.7029 1.4 45.3551 -116.495 114.183
1034 -23.5028 12.7029 1.4 44.6162 -98.436 -24.9022
1035 -22.7528 12.7029 1.4 43.8776 -103.272 44.7911
1036 -22.0028 12.7029 1.4 43.1394 -94.6062 -87.8881
1037 -21.2528 12.7029 1.4 42.4016 -115.588 72.5908
1038 -20.5028 12.7029 1.4 41.6643 -110.279 94.6688
1039 -19.7528 12.7029 1.4 40.9275 -104.821 94.5741
1040 -19.0028 12.7029 1.4 40.1911 -113.249 -29.3708
1041 -18.2528 12.7029 1.4 39.4552 -110.28 -114.494
1042 -17.5028 12.7029 1.4 38.7199 -75.1616 91.4829
1043 -16.7528 12.7029 1.4 37.9851 -112.712 155.121
1044 -16.0028 12.7029 1.4 37.251 -124.711 138.155
1045 -15.2528 12.7029 1.4 36.5175 -124.335 -168.653
1046 -14.5028 12.7029 1.4 35.7847 -123.951 -115.61
1047 -13.7528 12.7029 1.4 35.0526 -81.5296 150.034
1048 -13.0028 12.7029 1.4 34.3213 -86.7493 -74.8512
1049 -12.2528 12.7029 1.4 33.5908 -96.7081 -18.4737
1050 -11.5028 12.7029 1.4 32.8612 -102.581 54.5509
1051 -10.7528 12.7029 1.4 32.1325 -102.372 106.738
1052 -10.0028 12.7029 1.4 31.4049 -102.156 158.695
1053 -9.25282 12.7029 1.4 30.6783 -113.466 123.708
1054 -8.50282 12.7029 1.4 29.9528 -93.4888 -61.3101
1055 -7.75282 12.7029 1.4 29.2287 -78.3744 161.852
1056 -7.00282 12.7029 1.4 28.5058 -250 0
1057 -6.25282 12.7029 1.4 27.7844 -250 0
1058 -5.50282 12.7029 1.4 27.0645 -250 0
1059 -4.75282 12.7029 1.4 26.3463 -250 0
1060 -4.00282 12.7029 1.4 25.63 -82.036 -4.10821
1061 -3.25282 12.7029 1.4 24.9156 -71.1636 105.887
1062 -2.50282 12.7029 1.4 24.2033 -80.655 -136.579
1063 -1.75282 12.7029 1.4 23.4935 -86.0922 162.222
1064 -1.00282 12.7029 1.4 22.7862 -250 0
1065 -0.25282 12.7029 1.4 22.0817 -250 0
1066 0.49718 12.7029 1.4 21.3803 -250 0
1067 1.24718 12.7029 1.4 20.6823 -72.8999 -32.6083
1068 1.99718 12.7029 1.4 19.9881 -86.1524 -81.4482
1069 2.74718 12.7029 1.4 19.298 -84.5478 -118.089
1070 3.49718 12.7029 1.4 18.6126 -88.1776 -114.952
1071 4.24718 12.7029 1.4 17.9324 -250 0
1072 4.99718 12.7029 1.4 17.258 -250 0
1073 5.74718 12.7029 1.4 16.59 -82.073 4.98275
1074 6.49718 12.7029 1.4 15.9294 -76.1063 112.642
1075 7.24718 12.7029 1.4 15.277 -64.8989 117.866
1076 7.99718 12.7029 1.4 14.6339 -86.6167 9.85701
1077 8.74718 12.7029 1.4 14.0015 -250 0
1078 9.49718 12.7029 1.4 13.3813 -250 0
1079 10.2472 12.7029 1.4 12.775 -84.8132 120.605
1080 10.9972 12.7029 1.4 12.1847 -73.3464 -145.919
1081 11.7472 12.7029 1.4 11.6128 -64.198 100.109
1082 12.4972 12.7029 1.4 11.0623 -78.3753 16.1475
1083 13.2472 12.7029 1.4 10.5363 -82.6229 5.79223
1084 13.9972 12.7029 1.4 10.039 -96.1094 44.2657
1085 14.7472 12.7029 1.4 9.57453 -92.7407 -162.049
1086 15.4972 12.7029 1.4 9.1481 -87.2303 -155.259
1087 16.2472 12.7029 1.4 8.7652 -56.1085 108.219
1088 16.9972 12.7029 1.4 8.43178 -54.9974 -121.068
1089 17.7472 12.7029 1.4 8.15389 -57.9406 57.8123
1090 18.4972 12.7029 1.4 7.93738 -56.8157 77.3838
1091 19.2472 12.7029 1.4 7.78737 -52.1973 28.8571
1092 19.9972 12.7029 1.4 7.70774 -60.6433 28.651
1093 20.7472 12.7029 1.4 7.70067 -69.5337 57.6823
1094 21.4972 12.7029 1.4 7.76636 -59.4238 -11.2563
1095 22.2472 12.7029 1.4 7.903 -62.6136 -53.9305
1096 22.9972 12.7029 1.4 8.10701 -77.2277 19.6688
1097 23.7472 12.7029 1.4 8.37345 -82.8938 133.771
1098 24.4972 12.7029 1.4 8.69659 -88.7061 50.4038
1099 25.2472 12.7029 1.4 9.07038 -250 0
1100 25.9972 12.7029 1.4 9.48883 -250 0
1101 26.7472 12.7029 1.4 9.9463 -64.4738 -158.346
1102 27.4972 12.7029 1.4 10.4377 -67.5552 -118.27
1103 28.2472 12.7029 1.4 10.9584 -75.0187 58.0893
1104 28.9972 12.7029 1.4 11.5044 -250 0
1105 29.7472 12.7029 1.4 12.0724 -250 0
1106 30.4972 12.7029 1.4 12.6594 -250 0
1107 -28.0028 13.4529 1.4 48.9428 -125.365 68.7688
1108 -27.2528 13.4529 1.4 48.2005 -125.087 22.1192
1109 -26.5028 13.4529 1.4 47.4585 -250 0
1110 -25.7528 13.4529 1.4 46.7167 -250 0
1111 -25.0028 13.4529 1.4 45.9752 -250 0
1112 -24.2528 13.4529 1.4 45.2339 -96.2814 120.472
1113 -23.5028 13.4529 1.4 44.4929 -124.99 -154.358
1114 -22.7528 13.4529 1.4 43.7523 -124.683 -102.3
1115 -22.0028 13.4529 1.4 43.012 -99.1514 135.819
1116 -21.2528 13.4529 1.4 42.272 -111.067 -175.236
1117 -20.5028 13.4529 1.4 41.5324 -106.098 -2.69328
1118 -19.7528 13.4529 1.4 40.7931 -112.698 47.6294
1119 -19.0028 13.4529 1.4 40.0543 -90.3627 123.355
1120 -18.2528 13.4529 1.4 39.3158 -122.725 -153.746
1121 -17.5028 13.4529 1.4 38.5779 -122.376 -103.065
1122 -16.7528 13.4529 1.4 37.8403 -100.383 -77.3565
1123 -16.0028 13.4529 1.4 37.1033 -106.739 126.38
1124 -15.2528 13.4529 1.4 36.3669 -121.287 47.4019
1125 -14.5028 13.4529 1.4 35.631 -107.286 -110.822
1126 -13.7528 13.4529 1.4 34.8956 -120.521 146.204
1127 -13.0028 13.4529 1.4 34.161 -102.893 155.881
1128 -12.2528 13.4529 1.4 33.427 -75.9542 112.477
1129 -11.5028 13.4529 1.4 32.6937 -89.3246 -138.767
1130 -10.7528 13.4529 1.4 31.9612 -250 0
1131 -10.0028 13.4529 1.4 31.2296 -97.9511 49.2462
1132 -9.25282 13.4529 1.4 30.4988 -93.087 -162.304
1133 -8.50282 13.4529 1.4 29.769 -77.1429 14.0097
1134 -7.75282 13.4529 1.4 29.0402 -250 0
1135 -7.00282 13.4529 1.4 28.3126 -250 0
1136 -6.25282 13.4529 1.4 27.5861 -250 0
1137 -5.50282 13.4529 1.4 26.8609 -250 0
1138 -4.75282 13.4529 1.4 26.1371 -82.1541 -144.487
1139 -4.00282 13.4529 1.4 25.4149 -76.0912 -89.3991
1140 -3.25282 13.4529 1.4 24.6943 -75.7123 88.1829
1141 -2.50282 13.4529 1.4 23.9754 -80.949 -47.0669
1142 -1.75282 13.4529 1.4 23.2586 -85.197 -5.48969
1143 -1.00282 13.4529 1.4 22.5439 -81.1958 -16.8978
1144 -0.25282 13.4529 1.4 21.8316 -88.2904 0.583908
1145 0.49718 13.4529 1.4 21.1219 -71.9607 132.179
1146 1.24718 13.4529 1.4 20.4151 -83.553 96.85
1147 1.99718 13.4529 1.4 19.7115 -73.7641 -167.485
1148 2.74718 13.4529 1.4 19.0114 -69.8704 143.681
1149 3.49718 13.4529 1.4 18.3153 -250 0
1150 4.24718 13.4529 1.4 17.6236 -88.2488 141.004
1151 4.99718 13.4529 1.4 16.9369 -88.1189 -47.8565
1152 5.74718 13.4529 1.4 16.2557 -75.7842 120.227
1153 6.49718 13.4529 1.4 15.5809 -66.688 -114.472
1154 7.24718 13.4529 1.4 14.9133 -68.752 -75.9366
1155 7.99718 13.4529 1.4 14.2539 -73.3932 80.7738
1156 8.74718 13.4529 1.4 13.6038 -87.9268 -74.1813
1157 9.49718 13.4529 1.4 12.9645 -250 0
1158 10.2472 13.4529 1.4 12.3378 -250 0
1159 10.9972 13.4529 1.4 11.7255 -80.2238 165.82
1160 11.7472 13.4529 1.4 11.13 -70.0728 176.027
1161 12.4972 13.4529 1.4 10.5543 -57.6609 -81.0021
1162 13.2472 13.4529 1.4 10.0017 -71.3441 -9.39006
1163 13.9972 13.4529 1.4 9.47634 -92.7567 11.2395
1164 14.7472 13.4529 1.4 8.98288 -88.2708 -42.2834
1165 15.4972 13.4529 1.4 8.52691 -77.3792 58.1268
1166 16.2472 13.4529 1.4 8.11475 -83.0192 -132.829
1167 16.9972 13.4529 1.4 7.75341 -71.1572 -102.372
1168 17.7472 13.4529 1.4 7.45026 -49.9864 -53.1341
1169 18.4972 13.4529 1.4 7.21266 -83.794 -38.8756
1170 19.2472 13.4529 1.4 7.04724 -87.5927 -37.0903
1171 19.9972 13.4529 1.4 6.95914 -77.9252 -58.6616
1172 20.7472 13.4529 1.4 6.95131 -58.4349 -115.402
1173 21.4972 13.4529 1.4 7.02402 -58.9051 -155.841
1174 22.2472 13.4529 1.4 7.17481 -59.9018 -108.964
1175 22.9972 13.4529 1.4 7.39892 -86.282 -117.543
1176 23.7472 13.4529 1.4 7.68993 -83.7632 -9.69677
1177 24.4972 13.4529 1.4 8.04059 -250 0
1178 25.2472 13.4529 1.4 8.44347 -250 0
1179 25.9972 13.4529 1.4 8.89147 -80.2546 -120.412
1180 26.7472 13.4529 1.4 9.37813 -64.576 139.267
1181 27.4972 13.4529 1.4 9.89775 -69.2327 29.201
1182 28.2472 13.4529 1.4 10.4454 -61.0058 16.503
1183 28.9972 13.4529 1.4 11.0169 -250 0
1184 29.7472 13.4529 1.4 11.6088 -250 0
1185 30.4972 13.4529 1.4 12.218 -250 0
1186 -28.0028 14.2029 1.4 48.842 -250 0
1187 -27.2528 14.2029 1.4 48.0982 -250 0
1188 -26.5028 14.2029 1.4 47.3545 -250 0
1189 -25.7528 14.2029 1.4 46.6111 -250 0
1190 -25.0028 14.2029 1.4 45.8679 -250 0
1191 -24.2528 14.2029 1.4 45.1248 -123.071 0.601135
1192 -23.5028 14.2029 1.4 44.3821 -122.774 49.9557
1193 -22.7528 14.2029 1.4 43.6395 -118.096 -120.991
1194 -22.0028 14.2029 1.4 42.8973 -122.163 147.861
1195 -21.2528 14.2029 1.4 42.1553 -250 0
1196 -20.5028 14.2029 1.4 41.4135 -117.27 111.804
1197 -19.7528 14.2029 1.4 40.6721 -79.4725 34.4021
1198 -19.0028 14.2029 1.4 39.9311 -250 0
1199 -18.2528 14.2029 1.4 39.1903 -108.827 -38.1707
1200 -17.5028 14.2029 1.4 38.4499 -250 0
1201 -16.7528 14.2029 1.4 37.7099 -250 0
1202 -16.0028 14.2029 1.4 36.9703 -90.4901 -27.1946
1203 -15.2528 14.2029 1.4 36.2311 -250 0
1204 -14.5028 14.2029 1.4 35.4924 -250 0
1205 -13.7528 14.2029 1.4 34.7542 -250 0
1206 -13.0028 14.2029 1.4 34.0164 -98.533 -87.8752
1207 -12.2528 14.2029 1.4 33.2793 -250 0
1208 -11.5028 14.2029 1.4 32.5427 -86.1743 -81.4835
1209 -10.7528 14.2029 1.4 31.8067 -93.4296 -77.9163
1210 -10.0028 14.2029 1.4 31.0714 -77.2642 131.635
1211 -9.25282 14.2029 1.4 30.3368 -82.2734 82.6019
1212 -8.50282 14.2029 1.4 29.603 -250 0
1213 -7.75282 14.2029 1.4 28.8701 -250 0
1214 -7.00282 14.2029 1.4 28.138 -88.6998 54.1003
1215 -6.25282 14.2029 1.4 27.4069 -84.5943 -81.4208
1216 -5.50282 14.2029 1.4 26.6768 -76.2218 8.42782
1217 -4.75282 14.2029 1.4 25.9479 -76.04 -87.805
1218 -4.00282 14.2029 1.4 25.2202 -76.0839 -146.007
1219 -3.25282 14.2029 1.4 24.4939 -250 0
1220 -2.50282 14.2029 1.4 23.769 -250 0
1221 -1.75282 14.2029 1.4 23.0458 -81.5202 132.426
1222 -1.00282 14.2029 1.4 22.3243 -73.1057 -161.633
1223 -0.25282 14.2029 1.4 21.6048 -74.7209 -96.482
1224 0.49718 14.2029 1.4 20.8874 -83.7117 -23.0986
1225 1.24718 14.2029 1.4 20.1723 -87.5742 104.645
1226 1.99718 14.2029 1.4 19.4599 -250 0
1227 2.74718 14.2029 1.4 18.7505 -81.3144 120.675
1228 3.49718 14.2029 1.4 18.0443 -68.3272 18.9412
1229 4.24718 14.2029 1.4 17.3418 -79.0795 -128.294
1230 4.99718 14.2029 1.4 16.6434 -87.3354 -100.185
1231 5.74718 14.2029 1.4 15.9497 -66.7493 7.67347
1232 6.49718 14.2029 1.4 15.2614 -87.659 -161.64
1233 7.24718 14.2029 1.4 14.5792 -250 0
1234 7.99718 14.2029 1.4 13.9039 -76.1215 155.49
1235 8.74718 14.2029 1.4 13.2366 -71.7399 -165.811
1236 9.49718 14.2029 1.4 12.5787 -76.6 153.958
1237 10.2472 14.2029 1.4 11.9317 -90.5754 151.192
1238 10.9972 14.2029 1.4 11.2974 -80.7193 72.5537
1239 11.7472 14.2029 1.4 10.6782 -79.8915 103.423
1240 12.4972 14.2029 1.4 10.0767 -69.2271 8.85971
1241 13.2472 14.2029 1.4 9.49633 -58.8739 -178.01
1242 13.9972 14.2029 1.4 8.94127 -80.6344 118.889
1243 14.7472 14.2029 1.4 8.4165 -71.8897 -91.3881
1244 15.4972 14.2029 1.4 7.92802 -80.6319 44.1563
1245 16.2472 14.2029 1.4 7.48296 -72.3149 -18.0671
1246 16.9972 14.2029 1.4 7.08948 -75.5707 46.1148
1247 17.7472 14.2029 1.4 6.75661 -51.9323 122.91
1248 18.4972 14.2029 1.4 6.49368 -50.1734 -130.505
1249 19.2472 14.2029 1.4 6.30943 -68.1246 11.5695
1250 19.9972 14.2029 1.4 6.21088 -55.4728 138.238
1251 20.7472 14.2029 1.4 6.20211 -62.1577 42.3779
1252 21.4972 14.2029 1.4 6.28349 -76.3589 -108.421
1253 22.2472 14.2029 1.4 6.45161 -75.1561 -137.802
1254 22.9972 14.2029 1.4 6.69995 -60.0013 125.428
1255 23.7472 14.2029 1.4 7.02 -81.4826 -50.1775
1256 24.4972 14.2029 1.4 7.40247 -250 0
1257 25.2472 14.2029 1.4 7.83821 -90.229 13.8697
1258 25.9972 14.2029 1.4 8.31888 -64.5212 28.396
1259 26.7472 14.2029 1.4 8.83712 -77.5919 167.85
1260 27.4972 14.2029 1.4 9.38674 -91.6347 167.646
1261 28.2472 14.2029 1.4 9.96253 -69.8325 -107.138
1262 28.9972 14.2029 1.4 10.5602 -250 0
1263 29.7472 14.2029 1.4 11.1763 -250 0
1264 30.4972 14.2029 1.4 11.8078 -250 0
1265 -28.0028 14.9529 1.4 48.7526 -250 0
1266 -27.2528 14.9529 1.4 48.0074 -250 0
1267 -26.5028 14.9529 1.4 47.2623 -250 0
1268 -25.7528 14.9529 1.4 46.5174 -250 0
1269 -25.0028 14.9529 1.4 45.7726 -250 0
1270 -24.2528 14.9529 1.4 45.028 -250 0
1271 -23.5028 14.9529 1.4 44.2836 -250 0
1272 -22.7528 14.9529 1.4 43.5394 -250 0
1273 -22.0028 14.9529 1.4 42.7954 -250 0
1274 -21.2528 14.9529 1.4 42.0516 -250 0
1275 -20.5028 14.9529 1.4 41.308 -250 0
1276 -19.7528 14.9529 1.4 40.5647 -250 0
1277 -19.0028 14.9529 1.4 39.8216 -250 0
1278 -18.2528 14.9529 1.4 39.0788 -250 0
1279 -17.5028 14.9529 1.4 38.3362 -250 0
1280 -16.7528 14.9529 1.4 37.594 -250 0
1281 -16.0028 14.9529 1.4 36.852 -250 0
1282 -15.2528 14.9529 1.4 36.1104 -250 0
1283 -14.5028 14.9529 1.4 35.3692 -250 0
1284 -13.7528 14.9529 1.4 34.6283 -250 0
1285 -13.0028 14.9529 1.4 33.8879 -250 0
1286 -12.2528 14.9529 1.4 33.1478 -250 0
1287 -11.5028 14.9529 1.4 32.4083 -250 0
1288 -10.7528 14.9529 1.4 31.6692 -250 0
1289 -10.0028 14.9529 1.4 30.9306 -250 0
1290 -9.25282 14.9529 1.4 30.1926 -250 0
1291 -8.50282 14.9529 1.4 29.4552 -250 0
1292 -7.75282 14.9529 1.4 28.7185 -250 0
1293 -7.00282 14.9529 1.4 27.9824 -77.9779 74.0857
1294 -6.25282 14.9529 1.4 27.2472 -91.208 -10.0373
1295 -5.50282 14.9529 1.4 26.5127 -76.3602 42.0742
1296 -4.75282 14.9529 1.4 25.7792 -76.4547 -21.5432
1297 -4.00282 14.9529 1.4 25.0466 -250 0
1298 -3.25282 14.9529 1.4 24.3151 -250 0
1299 -2.50282 14.9529 1.4 23.5847 -250 0
1300 -1.75282 14.9529 1.4 22.8556 -250 0
1301 -1.00282 14.9529 1.4 22.1279 -250 0
1302 -0.25282 14.9529 1.4 21.4018 -88.8214 -114.273
1303 0.49718 14.9529 1.4 20.6773 -250 0
1304 1.24718 14.9529 1.4 19.9548 -250 0
1305 1.99718 14.9529 1.4 19.2343 -250 0
1306 2.74718 14.9529 1.4 18.5162 -250 0
1307 3.49718 14.9529 1.4 17.8007 -250 0
1308 4.24718 14.9529 1.4 17.0882 -250 0
1309 4.99718 14.9529 1.4 16.3791 -250 0
1310 5.74718 14.9529 1.4 15.6737 -250 0
1311 6.49718 14.9529 1.4 14.9727 -250 0
1312 7.24718 14.9529 1.4 14.2766 -250 0
1313 7.99718 14.9529 1.4 13.5863 -250 0
1314 8.74718 14.9529 1.4 12.9027 -250 0
1315 9.49718 14.9529 1.4 12.2268 -81.46 -137.437
1316 10.2472 14.9529 1.4 11.5601 -74.807 78.3285
1317 10.9972 14.9529 1.4 10.9042 -250 0
1318 11.7472 14.9529 1.4 10.2613 -250 0
1319 12.4972 14.9529 1.4 9.63378 -250 0
1320 13.2472 14.9529 1.4 9.025 -74.1781 172.833
1321 13.9972 14.9529 1.4 8.439 -52.6808 -46.9743
1322 14.7472 14.9529 1.4 7.88085 -55.1986 164.527
1323 15.4972 14.9529 1.4 7.3569 -58.3558 -58.1529
1324 16.2472 14.9529 1.4 6.87496 -53.4866 -67.0074
1325 16.9972 14.9529 1.4 6.44446 -65.4592 51.9128
1326 17.7472 14.9529 1.4 6.07636 -250 0
1327 18.4972 14.9529 1.4 5.78258 -250 0
1328 19.2472 14.9529 1.4 5.57489 -250 0
1329 19.9972 14.9529 1.4 5.4631 -250 0
1330 20.7472 14.9529 1.4 5.45312 -250 0
1331 21.4972 14.9529 1.4 5.5455 -250 0
1332 22.2472 14.9529 1.4 5.7353 -250 0
1333 22.9972 14.9529 1.4 6.0133 -250 0
1334 23.7472 14.9529 1.4 6.36796 -250 0
1335 24.4972 14.9529 1.4 6.78726 -250 0
1336 25.2472 14.9529 1.4 7.26003 -250 0
1337 25.9972 14.9529 1.4 7.77651 -250 0
1338 26.7472 14.9529 1.4 8.32858 -250 0
1339 27.4972 14.9529 1.4 8.90962 -250 0
1340 28.2472 14.9529 1.4 9.51432 -61.116 44.0094
1341 28.9972 14.9529 1.4 10.1385 -250 0
1342 29.7472 14.9529 1.4 10.7787 -250 0
1343 30.4972 14.9529 1.4 11.4322 -250 0
1344 -28.0028 15.7029 1.4 48.6745 -250 0
1345 -27.2528 15.7029 1.4 47.9281 -250 0
1346 -26.5028 15.7029 1.4 47.1818 -250 0
1347 -25.7528 15.7029 1.4 46.4355 -250 0
1348 -25.0028 15.7029 1.4 45.6895 -154.001 137.814
1349 -24.2528 15.7029 1.4 44.9435 -250 0
1350 -23.5028 15.7029 1.4 44.1977 -250 0
1351 -22.7528 15.7029 1.4 43.452 -250 0
1352 -22.0028 15.7029 1.4 42.7064 -250 0
1353 -21.2528 15.7029 1.4 41.9611 -250 0
1354 -20.5028 15.7029 1.4 41.2159 -250 0
1355 -19.7528 15.7029 1.4 40.4708 -250 0
1356 -19.0028 15.7029 1.4 39.726 -250 0
1357 -18.2528 15.7029 1.4 38.9814 -250 0
1358 -17.5028 15.7029 1.4 38.2369 -250 0
1359 -16.7528 15.7029 1.4 37.4927 -250 0
1360 -16.0028 15.7029 1.4 36.7487 -250 0
1361 -15.2528 15.7029 1.4 36.005 -250 0
1362 -14.5028 15.7029 1.4 35.2615 -250 0
1363 -13.7528 15.7029 1.4 34.5184 -250 0
1364 -13.0028 15.7029 1.4 33.7755 -250 0
1365 -12.2528 15.7029 1.4 33.0329 -250 0
1366 -11.5028 15.7029 1.4 32.2907 -250 0
1367 -10.7528 15.7029 1.4 31.5489 -250 0
1368 -10.0028 15.7029 1.4 30.8074 -250 0
1369 -9.25282 15.7029 1.4 30.0664 -250 0
1370 -8.50282 15.7029 1.4 29.3258 -250 0
1371 -7.75282 15.7029 1.4 28.5858 -250 0
1372 -7.00282 15.7029 1.4 27.8462 -250 0
1373 -6.25282 15.7029 1.4 27.1072 -76.6822 170.421
1374 -5.50282 15.7029 1.4 26.3689 -250 0
1375 -4.75282 15.7029 1.4 25.6312 -250 0
1376 -4.00282 15.7029 1.4 24.8943 -250 0
1377 -3.25282 15.7029 1.4 24.1582 -250 0
1378 -2.50282 15.7029 1.4 23.4229 -250 0
1379 -1.75282 15.7029 1.4 22.6886 -250 0
1380 -1.00282 15.7029 1.4 21.9554 -89.684 -14.4171
1381 -0.25282 15.7029 1.4 21.2234 -101.357 132.088
1382 0.49718 15.7029 1.4 20.4926 -250 0
1383 1.24718 15.7029 1.4 19.7633 -250 0
1384 1.99718 15.7029 1.4 19.0356 -250 0
1385 2.74718 15.7029 1.4 18.3097 -250 0
1386 3.49718 15.7029 1.4 17.5858 -250 0
1387 4.24718 15.7029 1.4 16.8643 -250 0
1388 4.99718 15.7029 1.4 16.1453 -250 0
1389 5.74718 15.7029 1.4 15.4292 -250 0
1390 6.49718 15.7029 1.4 14.7165 -250 0
1391 7.24718 15.7029 1.4 14.0078 -250 0
1392 7.99718 15.7029 1.4 13.3035 -250 0
1393 8.74718 15.7029 1.4 12.6045 -69.9757 179.681
1394 9.49718 15.7029 1.4 11.9118 -75.6088 -136.636
1395 10.2472 15.7029 1.4 11.2264 -59.8455 -145.934
1396 10.9972 15.7029 1.4 10.5498 -250 0
1397 11.7472 15.7029 1.4 9.88377 -250 0
1398 12.4972 15.7029 1.4 9.23066 -250 0
1399 13.2472 15.7029 1.4 8.59338 -250 0
1400 13.9972 15.7029 1.4 7.97573 -53.5851 -163.373
1401 14.7472 15.7029 1.4 7.38263 -50.2251 178.439
1402 15.4972 15.7029 1.4 6.82051 -54.5085 62.0586
1403 16.2472 15.7029 1.4 6.29765 -58.4647 -165.91
1404 16.9972 15.7029 1.4 5.82465 -51.5296 163.757
1405 17.7472 15.7029 1.4 5.41457 -250 0
1406 18.4972 15.7029 1.4 5.08268 -250 0
1407 19.2472 15.7029 1.4 4.84508 -250 0
1408 19.9972 15.7029 1.4 4.71602 -250 0
1409 20.7472 15.7029 1.4 4.70446 -250 0
1410 21.4972 15.7029 1.4 4.81124 -250 0
1411 22.2472 15.7029 1.4 5.02883 -250 0
1412 22.9972 15.7029 1.4 5.3437 -250 0
1413 23.7472 15.7029 1.4 5.73988 -250 0
1414 24.4972 15.7029 1.4 6.2018 -250 0
1415 25.2472 15.7029 1.4 6.71591 -250 0
1416 25.9972 15.7029 1.4 7.27114 -100.288 89.901
1417 26.7472 15.7029 1.4 7.85879 -250 0
1418 27.4972 15.7029 1.4 8.47211 -61.9895 -175.335
1419 28.2472 15.7029 1.4 9.10592 -62.581 133.863
1420 28.9972 15.7029 1.4 9.75622 -250 0
1421 29.7472 15.7029 1.4 10.4199 -250 0
1422 30.4972 15.7029 1.4 11.0946 -250 0
1423 -28.0028 16.4529 1.4 48.6079 -250 0
1424 -27.2528 16.4529 1.4 47.8605 -250 0
1425 -26.5028 16.4529 1.4 47.113 -250 0
1426 -25.7528 16.4529 1.4 46.3657 -153.445 -35.0786
1427 -25.0028 16.4529 1.4 45.6185 -250 0
1428 -24.2528 16.4529 1.4 44.8713 -250 0
1429 -23.5028 16.4529 1.4 44.1243 -250 0
1430 -22.7528 16.4529 1.4 43.3774 -250 0
1431 -22.0028 16.4529 1.4 42.6305 -250 0
1432 -21.2528 16.4529 1.4 41.8838 -250 0
1433 -20.5028 16.4529 1.4 41.1372 -250 0
1434 -19.7528 16.4529 1.4 40.3907 -250 0
1435 -19.0028 16.4529 1.4 39.6444 -250 0
1436 -18.2528 16.4529 1.4 38.8981 -250 0
1437 -17.5028 16.4529 1.4 38.1521 -250 0
1438 -16.7528 16.4529 1.4 37.4062 -250 0
1439 -16.0028 16.4529 1.4 36.6605 -250 0
1440 -15.2528 16.4529 1.4 35.9149 -250 0
1441 -14.5028 16.4529 1.4 35.1695 -250 0
1442 -13.7528 16.4529 1.4 34.4244 -250 0
1443 -13.0028 16.4529 1.4 33.6794 -250 0
1444 -12.2528 16.4529 1.4 32.9347 -250 0
1445 -11.5028 16.4529 1.4 32.1902 -250 0
1446 -10.7528 16.4529 1.4 31.446 -127.108 147.878
1447 -10.0028 16.4529 1.4 30.7021 -101.638 -129.919
1448 -9.25282 16.4529 1.4 29.9585 -250 0
1449 -8.50282 16.4529 1.4 29.2152 -107.86 128.08
1450 -7.75282 16.4529 1.4 28.4722 -96.5712 109.034
1451 -7.00282 16.4529 1.4 27.7296 -77.0052 -62.6256
1452 -6.25282 16.4529 1.4 26.9875 -250 0
1453 -5.50282 16.4529 1.4 26.2458 -250 0
1454 -4.75282 16.4529 1.4 25.5045 -250 0
1455 -4.00282 16.4529 1.4 24.7638 -250 0
1456 -3.25282 16.4529 1.4 24.0237 -250 0
1457 -2.50282 16.4529 1.4 23.2842 -250 0
1458 -1.75282 16.4529 1.4 22.5454 -90.2241 84.7105
1459 -1.00282 16.4529 1.4 21.8074 -93.0577 -160.936
1460 -0.25282 16.4529 1.4 21.0702 -250 0
1461 0.49718 16.4529 1.4 20.3339 -94.6804 -115.03
1462 1.24718 16.4529 1.4 19.5987 -250 0
1463 1.99718 16.4529 1.4 18.8647 -250 0
1464 2.74718 16.4529 1.4 18.1319 -250 0
1465 3.49718 16.4529 1.4 17.4006 -250 0
1466 4.24718 16.4529 1.4 16.671 -250 0
1467 4.99718 16.4529 1.4 15.9433 -250 0
1468 5.74718 16.4529 1.4 15.2178 -250 0
1469 6.49718 16.4529 1.4 14.4947 -250 0
1470 7.24718 16.4529 1.4 13.7745 -250 0
1471 7.99718 16.4529 1.4 13.0577 -72.4397 6.60563
1472 8.74718 16.4529 1.4 12.3448 -60.4 -8.8182
1473 9.49718 16.4529 1.4 11.6366 -85.8949 -17.5589
1474 10.2472 16.4529 1.4 10.934 -77.5644 106.098
1475 10.9972 16.4529 1.4 10.2381 -250 0
1476 11.7472 16.4529 1.4 9.55036 -250 0
1477 12.4972 16.4529 1.4 8.87274 -250 0
1478 13.2472 16.4529 1.4 8.20771 -66.1895 -131.899
1479 13.9972 16.4529 1.4 7.55861 -61.2022 110.147
1480 14.7472 16.4529 1.4 6.92991 -53.6727 19.6715
1481 15.4972 16.4529 1.4 6.3277 -50.2361 45.8058
1482 16.2472 16.4529 1.4 5.76028 -51.3749 -51.8452
1483 16.9972 16.4529 1.4 5.23898 -57.3473 101.476
1484 17.7472 16.4529 1.4 4.77891 -250 0
1485 18.4972 16.4529 1.4 4.39933 -250 0
1486 19.2472 16.4529 1.4 4.12252 -250 0
1487 19.9972 16.4529 1.4 3.97004 -250 0
1488 20.7472 16.4529 1.4 3.9563 -250 0
1489 21.4972 16.4529 1.4 4.0827 -54.0982 173.873
1490 22.2472 16.4529 1.4 4.33699 -56.5858 -77.8781
1491 22.9972 16.4529 1.4 4.69847 -57.8178 -135.839
1492 23.7472 16.4529 1.4 5.14458 -60.2144 -70.4858
1493 24.4972 16.4529 1.4 5.65533 -63.8118 144.86
1494 25.2472 16.4529 1.4 6.21481 -75.6571 85.9864
1495 25.9972 16.4529 1.4 6.81101 -60.8022 -21.6774
1496 26.7472 16.4529 1.4 7.43512 -61.6711 -35.0598
1497 27.4972 16.4529 1.4 8.08066 -62.1935 -120.889
1498 28.2472 16.4529 1.4 8.74289 -57.4046 -116.302
1499 28.9972 16.4529 1.4 9.41829 -250 0
1500 29.7472 16.4529 1.4 10.1042 -250 0
1501 30.4972 16.4529 1.4 10.7987 -250 0
1502 -28.0028 17.2029 1.4 48.5528 -250 0
1503 -27.2528 17.2029 1.4 47.8045 -154.262 71.3495
1504 -26.5028 17.2029 1.4 47.0562 -120.653 115.545
1505 -25.7528 17.2029 1.4 46.3079 -147.521 -46.3102
1506 -25.0028 17.2029 1.4 45.5598 -140.174 5.49084
1507 -24.2528 17.2029 1.4 44.8116 -250 0
1508 -23.5028 17.2029 1.4 44.0636 -250 0
1509 -22.7528 17.2029 1.4 43.3156 -250 0
1510 -22.0028 17.2029 1.4 42.5677 -250 0
1511 -21.2528 17.2029 1.4 41.8198 -250 0
1512 -20.5028 17.2029 1.4 41.072 -250 0
1513 -19.7528 17.2029 1.4 40.3244 -250 0
1514 -19.0028 17.2029 1.4 39.5768 -250 0
1515 -18.2528 17.2029 1.4 38.8293 -250 0
1516 -17.5028 17.2029 1.4 38.0819 -153.183 165.462
1517 -16.7528 17.2029 1.4 37.3346 -250 0
1518 -16.0028 17.2029 1.4 36.5874 -250 0
1519 -15.2528 17.2029 1.4 35.8403 -250 0
1520 -14.5028 17.2029 1.4 35.0933 -250 0
1521 -13.7528 17.2029 1.4 34.3465 -120.774 -27.4895
1522 -13.0028 17.2029 1.4 33.5998 -120.734 20.7643
1523 -12.2528 17.2029 1.4 32.8533 -127.389 -125.927
1524 -11.5028 17.2029 1.4 32.1069 -96.3194 176.945
1525 -10.7528 17.2029 1.4 31.3608 -123.03 -47.4517
1526 -10.0028 17.2029 1.4 30.6148 -99.5875 55.9461
1527 -9.25282 17.2029 1.4 29.869 -100.777 -56.2106
1528 -8.50282 17.2029 1.4 29.1234 -95.8026 -89.1215
1529 -7.75282 17.2029 1.4 28.378 -94.2166 155.925
1530 -7.00282 17.2029 1.4 27.6329 -250 0
1531 -6.25282 17.2029 1.4 26.8881 -250 0
1532 -5.50282 17.2029 1.4 26.1435 -250 0
1533 -4.75282 17.2029 1.4 25.3993 -250 0
1534 -4.00282 17.2029 1.4 24.6555 -250 0
1535 -3.25282 17.2029 1.4 23.912 -250 0
1536 -2.50282 17.2029 1.4 23.1689 -91.6528 138.49
1537 -1.75282 17.2029 1.4 22.4263 -95.4201 -52.0919
1538 -1.00282 17.2029 1.4 21.6842 -101.697 -52.6335
1539 -0.25282 17.2029 1.4 20.9427 -250 0
1540 0.49718 17.2029 1.4 20.2018 -106.931 -85.1618
1541 1.24718 17.2029 1.4 19.4616 -88.5145 11.6286
1542 1.99718 17.2029 1.4 18.7222 -106.707 -94.9828
1543 2.74718 17.2029 1.4 17.9837 -91.9861 146.577
1544 3.49718 17.2029 1.4 17.2461 -250 0
1545 4.24718 17.2029 1.4 16.5097 -250 0
1546 4.99718 17.2029 1.4 15.7745 -250 0
1547 5.74718 17.2029 1.4 15.0408 -250 0
1548 6.49718 17.2029 1.4 14.3088 -250 0
1549 7.24718 17.2029 1.4 13.5788 -75.6369 -168.556
1550 7.99718 17.2029 1.4 12.851 -59.923 139.885
1551 8.74718 17.2029 1.4 12.126 -78.1921 -167.174
1552 9.49718 17.2029 1.4 11.4042 -77.8796 -60.061
1553 10.2472 17.2029 1.4 10.6863 -79.3463 -24.2936
1554 10.9972 17.2029 1.4 9.97315 -67.4887 -24.8779
1555 11.7472 17.2029 1.4 9.26578 -63.5593 -36.2251
1556 12.4972 17.2029 1.4 8.56568 -63.807 -44.6569
1557 13.2472 17.2029 1.4 7.87476 -62.998 0.797493
1558 13.9972 17.2029 1.4 7.19569 -68.3415 -108.375
1559 14.7472 17.2029 1.4 6.53216 -64.6878 -138.497
1560 15.4972 17.2029 1.4 5.88941 -62.8554 83.1536
1561 16.2472 17.2029 1.4 5.27506 -48.4709 -99.0865
1562 16.9972 17.2029 1.4 4.70025 -47.4645 -155.341
1563 17.7472 17.2029 1.4 4.18132 -250 0
1564 18.4972 17.2029 1.4 3.74159 -250 0
1565 19.2472 17.2029 1.4 3.41183 -250 0
1566 19.9972 17.2029 1.4 3.22593 -250 0
1567 20.7472 17.2029 1.4 3.20901 -250 0
1568 21.4972 17.2029 1.4 3.3636 -50.5268 10.0002
1569 22.2472 17.2029 1.4 3.66809 -61.7162 139.838
1570 22.9972 17.2029 1.4 4.08913 -49.5538 -76.3445
1571 23.7472 17.2029 1.4 4.59479 -55.4284 151.285
1572 24.4972 17.2029 1.4 5.16025 -69.5472 10.4988
1573 25.2472 17.2029 1.4 5.76795 -64.8921 51.5518
1574 25.9972 17.2029 1.4 6.40588 -64.8759 119.496
1575 26.7472 17.2029 1.4 7.06586 -62.1777 11.0697
1576 27.4972 17.2029 1.4 7.74225 -59.3393 89.7218
1577 28.2472 17.2029 1.4 8.43111 -59.2683 -10.0674
1578 28.9972 17.2029 1.4 9.1296 -250 0
1579 29.7472 17.2029 1.4 9.83569 -250 0
1580 30.4972 17.2029 1.4 10.5478 -250 0
1581 -28.0028 17.9529 1.4 48.5093 -120.524 -157.658
1582 -27.2528 17.9529 1.4 47.7602 -250 0
1583 -26.5028 17.9529 1.4 47.0112 -250 0
1584 -25.7528 17.9529 1.4 46.2623 -250 0
1585 -25.0028 17.9529 1.4 45.5133 -250 0
1586 -24.2528 17.9529 1.4 44.7644 -250 0
1587 -23.5028 17.9529 1.4 44.0156 -250 0
1588 -22.7528 17.9529 1.4 43.2667 -250 0
1589 -22.0028 17.9529 1.4 42.518 -250 0
1590 -21.2528 17.9529 1.4 41.7692 -250 0
1591 -20.5028 17.9529 1.4 41.0205 -250 0
1592 -19.7528 17.9529 1.4 40.2719 -153.762 -0.948987
1593 -19.0028 17.9529 1.4 39.5233 -154.168 -44.7476
1594 -18.2528 17.9529 1.4 38.7748 -154.63 -92.8749
1595 -17.5028 17.9529 1.4 38.0263 -155.16 -145.616
1596 -16.7528 17.9529 1.4 37.2779 -250 0
1597 -16.0028 17.9529 1.4 36.5295 -250 0
1598 -15.2528 17.9529 1.4 35.7812 -250 0
1599 -14.5028 17.9529 1.4 35.033 -250 0
1600 -13.7528 17.9529 1.4 34.2849 -109.626 30.3536
1601 -13.0028 17.9529 1.4 33.5368 -90.6066 -73.2563
1602 -12.2528 17.9529 1.4 32.7889 -105.523 -143.14
1603 -11.5028 17.9529 1.4 32.041 -115.37 -116.064
1604 -10.7528 17.9529 1.4 31.2933 -117.199 -23.4356
1605 -10.0028 17.9529 1.4 30.5456 -106.247 55.3647
1606 -9.25282 17.9529 1.4 29.7981 -93.371 4.56991
1607 -8.50282 17.9529 1.4 29.0507 -93.7283 -42.915
1608 -7.75282 17.9529 1.4 28.3034 -93.2716 -35.7254
1609 -7.00282 17.9529 1.4 27.5563 -250 0
1610 -6.25282 17.9529 1.4 26.8093 -250 0
1611 -5.50282 17.9529 1.4 26.0625 -250 0
1612 -4.75282 17.9529 1.4 25.3159 -250 0
1613 -4.00282 17.9529 1.4 24.5695 -250 0
1614 -3.25282 17.9529 1.4 23.8234 -84.5361 -115.755
1615 -2.50282 17.9529 1.4 23.0775 -91.6483 51.1377
1616 -1.75282 17.9529 1.4 22.3318 -250 0
1617 -1.00282 17.9529 1.4 21.5865 -250 0
1618 -0.25282 17.9529 1.4 20.8415 -250 0
1619 0.49718 17.9529 1.4 20.0969 -95.0862 0.328481
1620 1.24718 17.9529 1.4 19.3526 -92.4199 -23.2849
1621 1.99718 17.9529 1.4 18.6089 -74.2878 -71.252
1622 2.74718 17.9529 1.4 17.8657 -82.3077 -21.861
1623 3.49718 17.9529 1.4 17.123 -250 0
1624 4.24718 17.9529 1.4 16.3811 -250 0
1625 4.99718 17.9529 1.4 15.6399 -250 0
1626 5.74718 17.9529 1.4 14.8995 -250 0
1627 6.49718 17.9529 1.4 14.1602 -250 0
1628 7.24718 17.9529 1.4 13.4221 -67.2999 -81.7182
1629 7.99718 17.9529 1.4 12.6854 -69.5644 -125.521
1630 8.74718 17.9529 1.4 11.9503 -77.29 -77.8494
1631 9.49718 17.9529 1.4 11.2173 -75.7006 13.4701
1632 10.2472 17.9529 1.4 10.4866 -68.888 83.2888
1633 10.9972 17.9529 1.4 9.75879 -60.0077 173.667
1634 11.7472 17.9529 1.4 9.03466 -62.7402 -165.16
1635 12.4972 17.9529 1.4 8.31512 -68.9314 -108.563
1636 13.2472 17.9529 1.4 7.60147 -69.6307 30.8533
1637 13.9972 17.9529 1.4 6.89554 -65.9017 -68.4934
1638 14.7472 17.9529 1.4 6.19996 -83.5097 -128.128
1639 15.4972 17.9529 1.4 5.51866 -56.9445 122.317
1640 16.2472 17.9529 1.4 4.85764 -64.4252 151.091
1641 16.9972 17.9529 1.4 4.22643 -50.1374 129.914
1642 17.7472 17.9529 1.4 3.64058 -250 0
1643 18.4972 17.9529 1.4 3.12568 -250 0
1644 19.2472 17.9529 1.4 2.72231 -250 0
1645 19.9972 17.9529 1.4 2.48537 -250 0
1646 20.7472 17.9529 1.4 2.46336 -250 0
1647 21.4972 17.9529 1.4 2.66162 -49.2175 130.2
1648 22.2472 17.9529 1.4 3.03732 -44.5771 124.88
1649 22.9972 17.9529 1.4 3.53432 -48.2528 35.3206
1650 23.7472 17.9529 1.4 4.10883 -45.9558 124.011
1651 24.4972 17.9529 1.4 4.73271 -59.7012 -149.655
1652 25.2472 17.9529 1.4 5.38884 -54.235 -168.682
1653 25.9972 17.9529 1.4 6.06677 -57.638 -120.759
1654 26.7472 17.9529 1.4 6.75994 -52.8191 -147.053
1655 27.4972 17.9529 1.4 7.46411 -54.9487 162.047
1656 28.2472 17.9529 1.4 8.17643 -51.8048 -126.594
1657 28.9972 17.9529 1.4 8.89494 -70.4731 -66.8162
1658 29.7472 17.9529 1.4 9.61827 -61.6613 -13.534
1659 30.4972 17.9529 1.4 10.3454 -58.5624 -18.6286
1660 -28.0028 18.7029 1.4 48.4772 -250 0
1661 -27.2528 18.7029 1.4 47.7277 -250 0
1662 -26.5028 18.7029 1.4 46.9782 -250 0
1663 -25.7528 18.7029 1.4 46.2287 -250 0
1664 -25.0028 18.7029 1.4 45.4792 -250 0
1665 -24.2528 18.7029 1.4 44.7297 -250 0
1666 -23.5028 18.7029 1.4 43.9803 -250 0
1667 -22.7528 18.7029 1.4 43.2308 -250 0
1668 -22.0028 18.7029 1.4 42.4814 -250 0
1669 -21.2528 18.7029 1.4 41.732 -250 0
1670 -20.5028 18.7029 1.4 40.9827 -155.123 99.0249
1671 -19.7528 18.7029 1.4 40.2333 -155.618 45.9723
1672 -19.0028 18.7029 1.4 39.484 -250 0
1673 -18.2528 18.7029 1.4 38.7347 -250 0
1674 -17.5028 18.7029 1.4 37.9854 -250 0
1675 -16.7528 18.7029 1.4 37.2362 -250 0
1676 -16.0028 18.7029 1.4 36.487 -250 0
1677 -15.2528 18.7029 1.4 35.7378 -250 0
1678 -14.5028 18.7029 1.4 34.9887 -250 0
1679 -13.7528 18.7029 1.4 34.2396 -121.031 166.057
1680 -13.0028 18.7029 1.4 33.4905 -250 0
1681 -12.2528 18.7029 1.4 32.7415 -122.686 149.538
1682 -11.5028 18.7029 1.4 31.9925 -113.212 -54.9358
1683 -10.7528 18.7029 1.4 31.2436 -107.946 34.5431
1684 -10.0028 18.7029 1.4 30.4947 -91.85 150.107
1685 -9.25282 18.7029 1.4 29.7459 -78.297 -10.8858
1686 -8.50282 18.7029 1.4 28.9972 -97.1525 -10.1361
1687 -7.75282 18.7029 1.4 28.2485 -250 0
1688 -7.00282 18.7029 1.4 27.4999 -250 0
1689 -6.25282 18.7029 1.4 26.7513 -250 0
1690 -5.50282 18.7029 1.4 26.0029 -250 0
1691 -4.75282 18.7029 1.4 25.2545 -250 0
1692 -4.00282 18.7029 1.4 24.5063 -250 0
1693 -3.25282 18.7029 1.4 23.7581 -93.1013 140.882
1694 -2.50282 18.7029 1.4 23.0101 -94.195 28.7789
1695 -1.75282 18.7029 1.4 22.2622 -88.9561 59.4282
1696 -1.00282 18.7029 1.4 21.5145 -103.653 -173.173
1697 -0.25282 18.7029 1.4 20.7669 -250 0
1698 0.49718 18.7029 1.4 20.0195 -88.3187 -174.969
1699 1.24718 18.7029 1.4 19.2723 -73.4622 29.1879
1700 1.99718 18.7029 1.4 18.5253 -82.7819 125.994
1701 2.74718 18.7029 1.4 17.7786 -97.237 142.398
1702 3.49718 18.7029 1.4 17.0321 -250 0
1703 4.24718 18.7029 1.4 16.286 -250 0
1704 4.99718 18.7029 1.4 15.5403 -250 0
1705 5.74718 18.7029 1.4 14.795 -250 0
1706 6.49718 18.7029 1.4 14.0502 -250 0
1707 7.24718 18.7029 1.4 13.306 -64.9234 169.808
1708 7.99718 18.7029 1.4 12.5625 -70.7485 -137.079
1709 8.74718 18.7029 1.4 11.8197 -75.9714 154.28
1710 9.49718 18.7029 1.4 11.078 -75.3368 68.0288
1711 10.2472 18.7029 1.4 10.3375 -67.9454 -34.1699
1712 10.9972 18.7029 1.4 9.59841 -59.4986 0.636094
1713 11.7472 18.7029 1.4 8.86118 -73.3724 28.8233
1714 12.4972 18.7029 1.4 8.12629 -61.0236 10.7408
1715 13.2472 18.7029 1.4 7.39444 -61.6159 -28.6816
1716 13.9972 18.7029 1.4 6.66662 -60.0392 -21.3906
1717 14.7472 18.7029 1.4 5.94432 -59.702 48.3752
1718 15.4972 18.7029 1.4 5.22982 -66.9101 -172.724
1719 16.2472 18.7029 1.4 4.52682 -60.8418 178.362
1720 16.9972 18.7029 1.4 3.84163 -70.249 58.7116
1721 17.7472 18.7029 1.4 3.18578 -250 0
1722 18.4972 18.7029 1.4 2.58172 -250 0
1723 19.2472 18.7029 1.4 2.07518 -250 0
1724 19.9972 18.7029 1.4 1.75285 -250 0
1725 20.7472 18.7029 1.4 1.7215 -250 0
1726 21.4972 18.7029 1.4 1.9949 -49.3392 -25.7244
1727 22.2472 18.7029 1.4 2.47401 -44.8916 -51.9151
1728 22.9972 18.7029 1.4 3.06379 -44.9323 -54.9903
1729 23.7472 18.7029 1.4 3.71186 -48.8803 160.851
1730 24.4972 18.7029 1.4 4.39249 -69.6123 -42.3182
1731 25.2472 18.7029 1.4 5.09265 -55.4316 111.333
1732 25.9972 18.7029 1.4 5.80527 -52.6561 51.1919
1733 26.7472 18.7029 1.4 6.52627 -51.5109 135.382
1734 27.4972 18.7029 1.4 7.25316 -58.6554 129.346
1735 28.2472 18.7029 1.4 7.98432 -65.9158 -124.605
1736 28.9972 18.7029 1.4 8.71868 -55.8746 63.3385
1737 29.7472 18.7029 1.4 9.4555 -61.3738 34.7347
1738 30.4972 18.7029 1.4 10.1942 -61.8468 20.3215
1739 -28.0028 19.4529 1.4 48.4568 -250 0
1740 -27.2528 19.4529 1.4 47.707 -250 0
1741 -26.5028 19.4529 1.4 46.9571 -250 0
1742 -25.7528 19.4529 1.4 46.2073 -250 0
1743 -25.0028 19.4529 1.4 45.4574 -250 0
1744 -24.2528 19.4529 1.4 44.7076 -250 0
1745 -23.5028 19.4529 1.4 43.9578 -250 0
1746 -22.7528 19.4529 1.4 43.2079 -250 0
1747 -22.0028 19.4529 1.4 42.4581 -250 0
1748 -21.2528 19.4529 1.4 41.7083 -250 0
1749 -20.5028 19.4529 1.4 40.9585 -250 0
1750 -19.7528 19.4529 1.4 40.2087 -250 0
1751 -19.0028 19.4529 1.4 39.4589 -250 0
1752 -18.2528 19.4529 1.4 38.7091 -250 0
1753 -17.5028 19.4529 1.4 37.9594 -250 0
1754 -16.7528 19.4529 1.4 37.2096 -250 0
1755 -16.0028 19.4529 1.4 36.4599 -250 0
1756 -15.2528 19.4529 1.4 35.7101 -250 0
1757 -14.5028 19.4529 1.4 34.9604 -250 0
1758 -13.7528 19.4529 1.4 34.2107 -122.874 -116.495
1759 -13.0028 19.4529 1.4 33.461 -250 0
1760 -12.2528 19.4529 1.4 32.7113 -250 0
1761 -11.5028 19.4529 1.4 31.9616 -250 0
1762 -10.7528 19.4529 1.4 31.2119 -250 0
1763 -10.0028 19.4529 1.4 30.4623 -79.427 113.157
1764 -9.25282 19.4529 1.4 29.7126 -250 0
1765 -8.50282 19.4529 1.4 28.963 -250 0
1766 -7.75282 19.4529 1.4 28.2134 -250 0
1767 -7.00282 19.4529 1.4 27.4639 -250 0
1768 -6.25282 19.4529 1.4 26.7143 -250 0
1769 -5.50282 19.4529 1.4 25.9648 -250 0
1770 -4.75282 19.4529 1.4 25.2153 -250 0
1771 -4.00282 19.4529 1.4 24.4659 -250 0
1772 -3.25282 19.4529 1.4 23.7164 -250 0
1773 -2.50282 19.4529 1.4 22.9671 -102.175 28.0854
1774 -1.75282 19.4529 1.4 22.2177 -101.672 94.9484
1775 -1.00282 19.4529 1.4 21.4684 -89.8044 -122.828
1776 -0.25282 19.4529 1.4 20.7192 -99.4589 43.4573
1777 0.49718 19.4529 1.4 19.97 -72.4406 141.747
1778 1.24718 19.4529 1.4 19.2208 -83.738 -79.9299
1779 1.99718 19.4529 1.4 18.4718 -88.6968 -14.0977
1780 2.74718 19.4529 1.4 17.7228 -87.8774 -13.6256
1781 3.49718 19.4529 1.4 16.9739 -250 0
1782 4.24718 19.4529 1.4 16.2251 -250 0
1783 4.99718 19.4529 1.4 15.4765 -250 0
1784 5.74718 19.4529 1.4 14.7279 -250 0
1785 6.49718 19.4529 1.4 13.9796 -250 0
1786 7.24718 19.4529 1.4 13.2314 -69.0959 45.9487
1787 7.99718 19.4529 1.4 12.4834 -63.427 99.4683
1788 8.74718 19.4529 1.4 11.7357 -65.7951 134.443
1789 9.49718 19.4529 1.4 10.9883 -70.5251 170.086
1790 10.2472 19.4529 1.4 10.2413 -61.9167 -110.451
1791 10.9972 19.4529 1.4 9.49473 -58.8121 -20.727
1792 11.7472 19.4529 1.4 8.74877 -67.797 28.2337
1793 12.4972 19.4529 1.4 8.00356 -64.7632 79.4208
1794 13.2472 19.4529 1.4 7.25935 -61.9271 113.637
1795 13.9972 19.4529 1.4 6.51646 -59.7911 -172.314
1796 14.7472 19.4529 1.4 5.7754 -54.9973 150.378
1797 15.4972 19.4529 1.4 5.037 -54.3798 89.6312
1798 16.2472 19.4529 1.4 4.30261 -53.2661 -10.431
1799 16.9972 19.4529 1.4 3.57471 -60.8851 3.89448
1800 17.7472 19.4529 1.4 2.85826 -250 0
1801 18.4972 19.4529 1.4 2.16465 -250 0
1802 19.2472 19.4529 1.4 1.52538 -250 0
1803 19.9972 19.4529 1.4 1.0454 -250 0
1804 20.7472 19.4529 1.4 0.991944 -250 0
1805 21.4972 19.4529 1.4 1.41423 -38.9772 -174.436
1806 22.2472 19.4529 1.4 2.03497 -44.2406 90.083
1807 22.9972 19.4529 1.4 2.72162 -48.2984 -151.403
1808 23.7472 19.4529 1.4 3.43486 -49.4956 -82.1612
1809 24.4972 19.4529 1.4 4.16105 -47.3329 -90.1277
1810 25.2472 19.4529 1.4 4.89443 -55.5076 -165.667
1811 25.9972 19.4529 1.4 5.63219 -54.9987 176.641
1812 26.7472 19.4529 1.4 6.3728 -53.16 157.973
1813 27.4972 19.4529 1.4 7.11538 -55.1684 128.865
1814 28.2472 19.4529 1.4 7.85937 -61.6895 102.38
1815 28.9972 19.4529 1.4 8.60441 -59.4996 43.2167
1816 29.7472 19.4529 1.4 9.35024 -57.6324 -18.0749
1817 30.4972 19.4529 1.4 10.0967 -68.0262 -64.4854
1818 -28.0028 20.2029 1.4 48.448 -250 0
1819 -27.2528 20.2029 1.4 47.698 -250 0
1820 -26.5028 20.2029 1.4 46.948 -250 0
1821 -25.7528 20.2029 1.4 46.198 -250 0
1822 -25.0028 20.2029 1.4 45.448 -250 0
1823 -24.2528 20.2029 1.4 44.698 -250 0
1824 -23.5028 20.2029 1.4 43.948 -250 0
1825 -22.7528 20.2029 1.4 43.1981 -250 0
1826 -22.0028 20.2029 1.4 42.4481 -250 0
1827 -21.2528 20.2029 1.4 41.6981 -250 0
1828 -20.5028 20.2029 1.4 40.9481 -250 0
1829 -19.7528 20.2029 1.4 40.1981 -250 0
1830 -19.0028 20.2029 1.4 39.4481 -250 0
1831 -18.2528 20.2029 1.4 38.6981 -250 0
1832 -17.5028 20.2029 1.4 37.9481 -250 0
1833 -16.7528 20.2029 1.4 37.1981 -250 0
1834 -16.0028 20.2029 1.4 36.4481 -250 0
1835 -15.2528 20.2029 1.4 35.6981 -250 0
1836 -14.5028 20.2029 1.4 34.9482 -250 0
1837 -13.7528 20.2029 1.4 34.1982 -250 0
1838 -13.0028 20.2029 1.4 33.4482 -250 0
1839 -12.2528 20.2029 1.4 32.6982 -250 0
1840 -11.5028 20.2029 1.4 31.9482 -250 0
1841 -10.7528 20.2029 1.4 31.1982 -250 0
1842 -10.0028 20.2029 1.4 30.4482 -250 0
1843 -9.25282 20.2029 1.4 29.6983 -250 0
1844 -8.50282 20.2029 1.4 28.9483 -250 0
1845 -7.75282 20.2029 1.4 28.1983 -250 0
1846 -7.00282 20.2029 1.4 27.4483 -250 0
1847 -6.25282 20.2029 1.4 26.6983 -250 0
1848 -5.50282 20.2029 1.4 25.9483 -250 0
1849 -4.75282 20.2029 1.4 25.1984 -250 0
1850 -4.00282 20.2029 1.4 24.4484 -250 0
1851 -3.25282 20.2029 1.4 23.6984 -250 0
1852 -2.50282 20.2029 1.4 22.9484 -250 0
1853 -1.75282 20.2029 1.4 22.1985 -102.378 160.729
1854 -1.00282 20.2029 1.4 21.4485 -102.042 -145.336
1855 -0.25282 20.2029 1.4 20.6985 -106.839 81.0719
1856 0.49718 20.2029 1.4 19.9486 -99.2245 -174.586
1857 1.24718 20.2029 1.4 19.1986 -88.5021 -129.38
1858 1.99718 20.2029 1.4 18.4486 -87.6879 -119.324
1859 2.74718 20.2029 1.4 17.6987 -94.5566 -95.7235
1860 3.49718 20.2029 1.4 16.9487 -250 0
1861 4.24718 20.2029 1.4 16.1988 -250 0
1862 4.99718 20.2029 1.4 15.4488 -250 0
1863 5.74718 20.2029 1.4 14.6989 -250 0
1864 6.49718 20.2029 1.4 13.949 -250 0
1865 7.24718 20.2029 1.4 13.199 -68.2665 139.891
1866 7.99718 20.2029 1.4 12.4491 -67.7646 -164.29
1867 8.74718 20.2029 1.4 11.6992 -66.4188 -101.214
1868 9.49718 20.2029 1.4 10.9493 -66.6644 -52.8236
1869 10.2472 20.2029 1.4 10.1995 -67.9061 -13.4724
1870 10.9972 20.2029 1.4 9.44962 -63.1189 115.059
1871 11.7472 20.2029 1.4 8.69979 -61.9595 159.016
1872 12.4972 20.2029 1.4 7.95 -61.1926 -145.731
1873 13.2472 20.2029 1.4 7.20025 -60.3517 -90.6744
1874 13.9972 20.2029 1.4 6.45055 -57.7026 -55.7844
1875 14.7472 20.2029 1.4 5.70094 -57.253 -76.9515
1876 15.4972 20.2029 1.4 4.95144 -57.5303 -162.715
1877 16.2472 20.2029 1.4 4.20213 -53.4725 118.682
1878 16.9972 20.2029 1.4 3.45311 -57.1366 63.2405
1879 17.7472 20.2029 1.4 2.70463 -250 0
1880 18.4972 20.2029 1.4 1.95732 -250 0
1881 19.2472 20.2029 1.4 1.21334 -250 0
1882 19.9972 20.2029 1.4 0.488136 -250 0
1883 20.7472 20.2029 1.4 0.359664 -250 0
1884 21.4972 20.2029 1.4 1.07025 -39.2665 35.3993
1885 22.2472 20.2029 1.4 1.81288 -43.8431 -1.10274
1886 22.9972 20.2029 1.4 2.55981 -46.8912 -42.335
1887 23.7472 20.2029 1.4 3.30812 -50.0298 -109.97
1888 24.4972 20.2029 1.4 4.05706 -52.1394 151.993
1889 25.2472 20.2029 1.4 4.80633 -54.9161 112.308
1890 25.9972 20.2029 1.4 5.5558 -57.5884 46.8018
1891 26.7472 20.2029 1.4 6.3054 -55.0522 -24.2754
1892 27.4972 20.2029 1.4 7.05508 -56.5199 -61.7306
1893 28.2472 20.2029 1.4 7.80482 -64.758 -98.091
1894 28.9972 20.2029 1.4 8.5546 -61.0612 -164.981
1895 29.7472 20.2029 1.4 9.30443 -61.9514 140.806
1896 30.4972 20.2029 1.4 10.0543 -62.3213 85.0498
