#Rx
# X(m), Y(m), Z(m), Distance(m), Power (dBm) Phase (deg)
1 -28.0028 2.95289 1.4 51.4926 -250 0
2 -27.5028 2.95289 1.4 51.0225 -250 0
3 -27.0028 2.95289 1.4 50.5529 -250 0
4 -26.5028 2.95289 1.4 50.0839 -250 0
5 -26.0028 2.95289 1.4 49.6155 -250 0
6 -25.5028 2.95289 1.4 49.1478 -250 0
7 -25.0028 2.95289 1.4 48.6806 -250 0
8 -24.5028 2.95289 1.4 48.2142 -250 0
9 -24.0028 2.95289 1.4 47.7484 -250 0
10 -23.5028 2.95289 1.4 47.2833 -250 0
11 -23.0028 2.95289 1.4 46.8189 -250 0
12 -22.5028 2.95289 1.4 46.3553 -250 0
13 -22.0028 2.95289 1.4 45.8925 -250 0
14 -21.5028 2.95289 1.4 45.4304 -250 0
15 -21.0028 2.95289 1.4 44.9691 -250 0
16 -20.5028 2.95289 1.4 44.5087 -195.317 -70.005
17 -20.0028 2.95289 1.4 44.0492 -195.269 -71.0316
18 -19.5028 2.95289 1.4 43.5905 -195.222 -72.7851
19 -19.0028 2.95289 1.4 43.1327 -195.176 -75.2861
20 -18.5028 2.95289 1.4 42.6759 -111.488 -21.8399
21 -18.0028 2.95289 1.4 42.2201 -113.893 142.489
22 -17.5028 2.95289 1.4 41.7653 -186.183 172.477
23 -17.0028 2.95289 1.4 41.3115 -250 0
24 -16.5028 2.95289 1.4 40.8588 -250 0
25 -16.0028 2.95289 1.4 40.4073 -250 0
26 -15.5028 2.95289 1.4 39.9568 -250 0
27 -15.0028 2.95289 1.4 39.5076 -250 0
28 -14.5028 2.95289 1.4 39.0596 -250 0
29 -14.0028 2.95289 1.4 38.6129 -250 0
30 -13.5028 2.95289 1.4 38.1675 -95.5739 58.6442
31 -13.0028 2.95289 1.4 37.7235 -90.1728 43.6399
32 -12.5028 2.95289 1.4 37.2809 -91.7838 -13.9027
33 -12.0028 2.95289 1.4 36.8397 -117.081 -42.1014
34 -11.5028 2.95289 1.4 36.4001 -250 0
35 -11.0028 2.95289 1.4 35.9621 -250 0
36 -10.5028 2.95289 1.4 35.5257 -250 0
37 -10.0028 2.95289 1.4 35.091 -250 0
38 -9.50282 2.95289 1.4 34.658 -250 0
39 -9.00282 2.95289 1.4 34.2269 -118.629 -132.194
40 -8.50282 2.95289 1.4 33.7977 -103.97 -120.749
41 -8.00282 2.95289 1.4 33.3704 -91.7468 63.9942
42 -7.50282 2.95289 1.4 32.9452 -95.37 -81.9955
43 -7.00282 2.95289 1.4 32.5221 -117.033 -132.501
44 -6.50282 2.95289 1.4 32.1013 -250 0
45 -6.00282 2.95289 1.4 31.6827 -250 0
46 -5.50282 2.95289 1.4 31.2666 -250 0
47 -5.00282 2.95289 1.4 30.8529 -250 0
48 -4.50282 2.95289 1.4 30.4418 -250 0
49 -4.00282 2.95289 1.4 30.0334 -250 0
50 -3.50282 2.95289 1.4 29.6278 -111.572 -48.2279
51 -3.00282 2.95289 1.4 29.2251 -93.0702 55.1745
52 -2.50282 2.95289 1.4 28.8255 -90.6544 92.5809
53 -2.00282 2.95289 1.4 28.4291 -96.5037 -3.59936
54 -1.50282 2.95289 1.4 28.036 -95.8595 -16.6858
55 -1.00282 2.95289 1.4 27.6463 -115.335 -26.5171
56 -0.50282 2.95289 1.4 27.2602 -117.754 -13.8811
57 -0.00282 2.95289 1.4 26.8779 -110.307 60.9058
58 0.49718 2.95289 1.4 26.4995 -105.25 107.43
59 0.99718 2.95289 1.4 26.1252 -101.381 88.5064
60 1.49718 2.95289 1.4 25.7552 -90.5783 136.575
61 1.99718 2.95289 1.4 25.3896 -83.9599 -9.70013
62 2.49718 2.95289 1.4 25.0287 -96.0097 -36.7071
63 2.99718 2.95289 1.4 24.6726 -98.8577 -0.360937
64 3.49718 2.95289 1.4 24.3216 -250 0
65 3.99718 2.95289 1.4 23.9759 -83.9257 -101.546
66 4.49718 2.95289 1.4 23.6357 -94.2329 -33.6847
67 4.99718 2.95289 1.4 23.3012 -86.0702 -67.8715
68 5.49718 2.95289 1.4 22.9728 -87.2822 -125.261
69 5.99718 2.95289 1.4 22.6507 -73.4897 -50.6926
70 6.49718 2.95289 1.4 22.3351 -69.5231 -170.556
71 6.99718 2.95289 1.4 22.0263 -73.5201 31.5727
72 7.49718 2.95289 1.4 21.7246 -70.3751 121.901
73 7.99718 2.95289 1.4 21.4304 -73.0734 -98.1187
74 8.49718 2.95289 1.4 21.1439 -250 0
75 8.99718 2.95289 1.4 20.8654 -250 0
76 9.49718 2.95289 1.4 20.5954 -250 0
77 9.99718 2.95289 1.4 20.334 -250 0
78 10.4972 2.95289 1.4 20.0817 -85.943 156.594
79 10.9972 2.95289 1.4 19.8387 -89.1861 -64.0769
80 11.4972 2.95289 1.4 19.6056 -71.1415 107.602
81 11.9972 2.95289 1.4 19.3825 -63.3825 -8.36992
82 12.4972 2.95289 1.4 19.1698 -71.5203 -169.395
83 12.9972 2.95289 1.4 18.968 -68.7636 39.8769
84 13.4972 2.95289 1.4 18.7773 -86.8879 -121.991
85 13.9972 2.95289 1.4 18.5981 -110.611 -142.146
86 14.4972 2.95289 1.4 18.4308 -108.736 -16.4675
87 14.9972 2.95289 1.4 18.2755 -107.022 29.9934
88 15.4972 2.95289 1.4 18.1328 -93.5141 60.5889
89 15.9972 2.95289 1.4 18.0028 -87.4258 142.656
90 16.4972 2.95289 1.4 17.8858 -76.208 -141.486
91 16.9972 2.95289 1.4 17.7821 -78.6507 -26.7174
92 17.4972 2.95289 1.4 17.692 -84.2588 24.1434
93 17.9972 2.95289 1.4 17.6156 -91.9614 -58.4668
94 18.4972 2.95289 1.4 17.5531 -85.0382 170.546
95 18.9972 2.95289 1.4 17.5047 -79.9241 -48.4088
96 19.4972 2.95289 1.4 17.4704 -75.1554 10.227
97 19.9972 2.95289 1.4 17.4505 -70.2611 -5.76482
98 20.4972 2.95289 1.4 17.4448 -78.584 33.1675
99 20.9972 2.95289 1.4 17.4535 -71.6304 157.387
100 21.4972 2.95289 1.4 17.4764 -65.9027 32.548
101 21.9972 2.95289 1.4 17.5137 -59.5567 -177.721
102 22.4972 2.95289 1.4 17.565 -69.6363 34.648
103 22.9972 2.95289 1.4 17.6305 -72.3798 -129.083
104 23.4972 2.95289 1.4 17.7098 -57.8536 52.4912
105 23.9972 2.95289 1.4 17.8028 -64.6499 121.267
106 24.4972 2.95289 1.4 17.9092 -60.3045 120.073
107 24.9972 2.95289 1.4 18.0289 -86.1444 -177.175
108 25.4972 2.95289 1.4 18.1616 -91.4485 52.6921
109 25.9972 2.95289 1.4 18.307 -81.4443 146.363
110 26.4972 2.95289 1.4 18.4648 -77.2098 106.661
111 26.9972 2.95289 1.4 18.6347 -70.108 174.976
112 27.4972 2.95289 1.4 18.8163 -250 0
113 27.9972 2.95289 1.4 19.0094 -250 0
114 28.4972 2.95289 1.4 19.2135 -250 0
115 28.9972 2.95289 1.4 19.4284 -250 0
116 29.4972 2.95289 1.4 19.6536 -250 0
117 29.9972 2.95289 1.4 19.8889 -250 0
118 30.4972 2.95289 1.4 20.1338 -250 0
119 -28.0028 3.45289 1.4 51.3254 -250 0
120 -27.5028 3.45289 1.4 50.8537 -250 0
121 -27.0028 3.45289 1.4 50.3825 -250 0
122 -26.5028 3.45289 1.4 49.9119 -250 0
123 -26.0028 3.45289 1.4 49.4419 -250 0
124 -25.5028 3.45289 1.4 48.9725 -250 0
125 -25.0028 3.45289 1.4 48.5037 -250 0
126 -24.5028 3.45289 1.4 48.0355 -250 0
127 -24.0028 3.45289 1.4 47.568 -250 0
128 -23.5028 3.45289 1.4 47.1011 -250 0
129 -23.0028 3.45289 1.4 46.635 -250 0
130 -22.5028 3.45289 1.4 46.1695 -250 0
131 -22.0028 3.45289 1.4 45.7047 -250 0
132 -21.5028 3.45289 1.4 45.2408 -250 0
133 -21.0028 3.45289 1.4 44.7775 -250 0
134 -20.5028 3.45289 1.4 44.3151 -250 0
135 -20.0028 3.45289 1.4 43.8535 -250 0
136 -19.5028 3.45289 1.4 43.3928 -250 0
137 -19.0028 3.45289 1.4 42.9329 -195.291 -109.594
138 -18.5028 3.45289 1.4 42.474 -195.242 -109.714
139 -18.0028 3.45289 1.4 42.016 -195.193 -110.565
140 -17.5028 3.45289 1.4 41.5589 -113.467 27.7674
141 -17.0028 3.45289 1.4 41.1029 -250 0
142 -16.5028 3.45289 1.4 40.6479 -250 0
143 -16.0028 3.45289 1.4 40.1939 -250 0
144 -15.5028 3.45289 1.4 39.7411 -250 0
145 -15.0028 3.45289 1.4 39.2894 -250 0
146 -14.5028 3.45289 1.4 38.8389 -250 0
147 -14.0028 3.45289 1.4 38.3896 -250 0
148 -13.5028 3.45289 1.4 37.9416 -104.826 70.1212
149 -13.0028 3.45289 1.4 37.4949 -88.0496 -6.18969
150 -12.5028 3.45289 1.4 37.0495 -86.6558 -23.5045
151 -12.0028 3.45289 1.4 36.6056 -92.0449 -78.4043
152 -11.5028 3.45289 1.4 36.1632 -250 0
153 -11.0028 3.45289 1.4 35.7222 -250 0
154 -10.5028 3.45289 1.4 35.2828 -250 0
155 -10.0028 3.45289 1.4 34.8451 -118.448 -68.3883
156 -9.50282 3.45289 1.4 34.4091 -104.518 -56.9879
157 -9.00282 3.45289 1.4 33.9748 -96.4862 141.246
158 -8.50282 3.45289 1.4 33.5423 -95.9964 -27.1271
159 -8.00282 3.45289 1.4 33.1118 -116.956 -72.9476
160 -7.50282 3.45289 1.4 32.6832 -101.502 16.1297
161 -7.00282 3.45289 1.4 32.2567 -108.585 -23.2815
162 -6.50282 3.45289 1.4 31.8323 -250 0
163 -6.00282 3.45289 1.4 31.4102 -250 0
164 -5.50282 3.45289 1.4 30.9904 -250 0
165 -5.00282 3.45289 1.4 30.5729 -250 0
166 -4.50282 3.45289 1.4 30.158 -250 0
167 -4.00282 3.45289 1.4 29.7457 -250 0
168 -3.50282 3.45289 1.4 29.3362 -90.0359 32.0162
169 -3.00282 3.45289 1.4 28.9295 -89.62 44.7092
170 -2.50282 3.45289 1.4 28.5257 -115.694 -85.9643
171 -2.00282 3.45289 1.4 28.1251 -115.699 -83.8148
172 -1.50282 3.45289 1.4 27.7276 -112.453 149.662
173 -1.00282 3.45289 1.4 27.3336 -111.714 -153.064
174 -0.50282 3.45289 1.4 26.943 -110.168 -164.451
175 -0.00282 3.45289 1.4 26.5561 -109.819 -88.3622
176 0.49718 3.45289 1.4 26.1731 -105.534 135.741
177 0.99718 3.45289 1.4 25.7941 -102.474 35.2687
178 1.49718 3.45289 1.4 25.4192 -87.968 -57.4998
179 1.99718 3.45289 1.4 25.0487 -95.9109 51.2856
180 2.49718 3.45289 1.4 24.6828 -91.5684 171.045
181 2.99718 3.45289 1.4 24.3217 -109.621 -85.6589
182 3.49718 3.45289 1.4 23.9655 -250 0
183 3.99718 3.45289 1.4 23.6146 -66.894 -40.6339
184 4.49718 3.45289 1.4 23.2691 -84.7423 145.515
185 4.99718 3.45289 1.4 22.9293 -86.9058 153.378
186 5.49718 3.45289 1.4 22.5955 -87.562 -140.184
187 5.99718 3.45289 1.4 22.2679 -77.6203 113.675
188 6.49718 3.45289 1.4 21.9467 -69.1746 -140.637
189 6.99718 3.45289 1.4 21.6324 -81.9421 88.8728
190 7.49718 3.45289 1.4 21.3252 -72.7864 -86.7371
191 7.99718 3.45289 1.4 21.0254 -70.2725 25.8139
192 8.49718 3.45289 1.4 20.7333 -97.2768 8.84864
193 8.99718 3.45289 1.4 20.4492 -250 0
194 9.49718 3.45289 1.4 20.1736 -250 0
195 9.99718 3.45289 1.4 19.9067 -250 0
196 10.4972 3.45289 1.4 19.6489 -89.5347 178.978
197 10.9972 3.45289 1.4 19.4005 -87.2676 -33.7372
198 11.4972 3.45289 1.4 19.162 -80.3497 149.137
199 11.9972 3.45289 1.4 18.9337 -67.613 67.0469
200 12.4972 3.45289 1.4 18.716 -64.9543 -62.3842
201 12.9972 3.45289 1.4 18.5092 -77.7182 -141.602
202 13.4972 3.45289 1.4 18.3137 -250 0
203 13.9972 3.45289 1.4 18.13 -112.488 -122.375
204 14.4972 3.45289 1.4 17.9582 -110.518 93.792
205 14.9972 3.45289 1.4 17.7989 -108.25 -108.547
206 15.4972 3.45289 1.4 17.6523 -95.1581 -174.804
207 15.9972 3.45289 1.4 17.5187 -84.6873 -134.021
208 16.4972 3.45289 1.4 17.3985 -84.3157 87.0293
209 16.9972 3.45289 1.4 17.2919 -80.4479 72.465
210 17.4972 3.45289 1.4 17.1992 -85.8583 178.904
211 17.9972 3.45289 1.4 17.1206 -90.9731 -23.4614
212 18.4972 3.45289 1.4 17.0563 -83.9594 -162.507
213 18.9972 3.45289 1.4 17.0065 -78.624 -35.1066
214 19.4972 3.45289 1.4 16.9712 -73.4958 6.17496
215 19.9972 3.45289 1.4 16.9506 -70.2005 126.48
216 20.4972 3.45289 1.4 16.9448 -68.5834 -43.2982
217 20.9972 3.45289 1.4 16.9537 -85.6747 43.367
218 21.4972 3.45289 1.4 16.9774 -59.7373 86.3664
219 21.9972 3.45289 1.4 17.0157 -69.8721 165.341
220 22.4972 3.45289 1.4 17.0686 -66.3589 96.4443
221 22.9972 3.45289 1.4 17.1359 -68.2453 -21.0726
222 23.4972 3.45289 1.4 17.2175 -65.4808 -48.708
223 23.9972 3.45289 1.4 17.3131 -57.7996 -53.9311
224 24.4972 3.45289 1.4 17.4226 -59.5019 -59.4445
225 24.9972 3.45289 1.4 17.5456 -86.2845 166.835
226 25.4972 3.45289 1.4 17.6819 -87.9242 146.924
227 25.9972 3.45289 1.4 17.8312 -73.0356 36.6955
228 26.4972 3.45289 1.4 17.9932 -67.0374 12.5083
229 26.9972 3.45289 1.4 18.1675 -70.0937 -79.6555
230 27.4972 3.45289 1.4 18.3537 -250 0
231 27.9972 3.45289 1.4 18.5516 -250 0
232 28.4972 3.45289 1.4 18.7607 -250 0
233 28.9972 3.45289 1.4 18.9807 -250 0
234 29.4972 3.45289 1.4 19.2112 -250 0
235 29.9972 3.45289 1.4 19.4518 -250 0
236 30.4972 3.45289 1.4 19.7021 -250 0
237 -28.0028 3.95289 1.4 51.1625 -250 0
238 -27.5028 3.95289 1.4 50.6893 -250 0
239 -27.0028 3.95289 1.4 50.2166 -250 0
240 -26.5028 3.95289 1.4 49.7444 -250 0
241 -26.0028 3.95289 1.4 49.2728 -250 0
242 -25.5028 3.95289 1.4 48.8018 -250 0
243 -25.0028 3.95289 1.4 48.3313 -250 0
244 -24.5028 3.95289 1.4 47.8614 -250 0
245 -24.0028 3.95289 1.4 47.3922 -250 0
246 -23.5028 3.95289 1.4 46.9236 -250 0
247 -23.0028 3.95289 1.4 46.4556 -250 0
248 -22.5028 3.95289 1.4 45.9883 -250 0
249 -22.0028 3.95289 1.4 45.5217 -250 0
250 -21.5028 3.95289 1.4 45.0559 -250 0
251 -21.0028 3.95289 1.4 44.5907 -250 0
252 -20.5028 3.95289 1.4 44.1264 -250 0
253 -20.0028 3.95289 1.4 43.6628 -250 0
254 -19.5028 3.95289 1.4 43.2 -250 0
255 -19.0028 3.95289 1.4 42.7381 -250 0
256 -18.5028 3.95289 1.4 42.277 -250 0
257 -18.0028 3.95289 1.4 41.8168 -250 0
258 -17.5028 3.95289 1.4 41.3576 -250 0
259 -17.0028 3.95289 1.4 40.8993 -250 0
260 -16.5028 3.95289 1.4 40.442 -250 0
261 -16.0028 3.95289 1.4 39.9857 -250 0
262 -15.5028 3.95289 1.4 39.5305 -250 0
263 -15.0028 3.95289 1.4 39.0764 -250 0
264 -14.5028 3.95289 1.4 38.6234 -250 0
265 -14.0028 3.95289 1.4 38.1715 -250 0
266 -13.5028 3.95289 1.4 37.7209 -116.229 175.546
267 -13.0028 3.95289 1.4 37.2716 -98.634 -106.726
268 -12.5028 3.95289 1.4 36.8236 -87.8714 -71.6631
269 -12.0028 3.95289 1.4 36.3769 -93.201 -108.293
270 -11.5028 3.95289 1.4 35.9316 -90.4315 -150.662
271 -11.0028 3.95289 1.4 35.4878 -109.327 100.863
272 -10.5028 3.95289 1.4 35.0455 -118.297 114.169
273 -10.0028 3.95289 1.4 34.6047 -102.855 136.943
274 -9.50282 3.95289 1.4 34.1656 -98.4092 -9.59406
275 -9.00282 3.95289 1.4 33.7282 -95.8089 -176.567
276 -8.50282 3.95289 1.4 33.2925 -250 0
277 -8.00282 3.95289 1.4 32.8587 -250 0
278 -7.50282 3.95289 1.4 32.4268 -250 0
279 -7.00282 3.95289 1.4 31.9969 -104.543 -84.0897
280 -6.50282 3.95289 1.4 31.569 -108.959 113.814
281 -6.00282 3.95289 1.4 31.1433 -117.892 156.811
282 -5.50282 3.95289 1.4 30.7198 -250 0
283 -5.00282 3.95289 1.4 30.2987 -250 0
284 -4.50282 3.95289 1.4 29.88 -250 0
285 -4.00282 3.95289 1.4 29.4638 -250 0
286 -3.50282 3.95289 1.4 29.0503 -89.107 -23.2299
287 -3.00282 3.95289 1.4 28.6395 -106.226 -156.494
288 -2.50282 3.95289 1.4 28.2316 -106.589 159.398
289 -2.00282 3.95289 1.4 27.8267 -108.457 119.559
290 -1.50282 3.95289 1.4 27.4249 -112.179 41.3525
291 -1.00282 3.95289 1.4 27.0265 -108.112 34.1906
292 -0.50282 3.95289 1.4 26.6314 -109.703 64.7056
293 -0.00282 3.95289 1.4 26.2399 -110.038 169.643
294 0.49718 3.95289 1.4 25.8522 -101.275 1.30942
295 0.99718 3.95289 1.4 25.4684 -90.3405 -160.602
296 1.49718 3.95289 1.4 25.0887 -93.196 83.1988
297 1.99718 3.95289 1.4 24.7132 -105.881 50.7837
298 2.49718 3.95289 1.4 24.3423 -92.7857 10.4806
299 2.99718 3.95289 1.4 23.976 -94.5716 65.2588
300 3.49718 3.95289 1.4 23.6146 -100.862 -120.542
301 3.99718 3.95289 1.4 23.2584 -67.9362 -67.0595
302 4.49718 3.95289 1.4 22.9075 -66.1983 -110.422
303 4.99718 3.95289 1.4 22.5623 -80.5899 3.65624
304 5.49718 3.95289 1.4 22.223 -80.6776 14.6347
305 5.99718 3.95289 1.4 21.8898 -79.0472 -73.7827
306 6.49718 3.95289 1.4 21.563 -76.0898 68.7324
307 6.99718 3.95289 1.4 21.2431 -71.2024 162.313
308 7.49718 3.95289 1.4 20.9301 -74.638 33.0564
309 7.99718 3.95289 1.4 20.6246 -69.7171 -176.366
310 8.49718 3.95289 1.4 20.3267 -70.4414 -76.401
311 8.99718 3.95289 1.4 20.0369 -98.001 -124.925
312 9.49718 3.95289 1.4 19.7555 -250 0
313 9.99718 3.95289 1.4 19.4829 -250 0
314 10.4972 3.95289 1.4 19.2194 -88.7281 -70.1457
315 10.9972 3.95289 1.4 18.9654 -76.0223 -64.1544
316 11.4972 3.95289 1.4 18.7213 -70.5601 -33.6461
317 11.9972 3.95289 1.4 18.4876 -69.067 -144.365
318 12.4972 3.95289 1.4 18.2645 -75.0951 -45.1497
319 12.9972 3.95289 1.4 18.0526 -71.4592 -155.515
320 13.4972 3.95289 1.4 17.8521 -86.6954 161.724
321 13.9972 3.95289 1.4 17.6635 -115.041 102.988
322 14.4972 3.95289 1.4 17.4872 -113.065 40.1644
323 14.9972 3.95289 1.4 17.3236 -92.4622 -105.889
324 15.4972 3.95289 1.4 17.1729 -85.146 -121.173
325 15.9972 3.95289 1.4 17.0356 -86.7483 178.314
326 16.4972 3.95289 1.4 16.9119 -90.8027 -133.803
327 16.9972 3.95289 1.4 16.8022 -82.2461 25.5099
328 17.4972 3.95289 1.4 16.7068 -85.2921 96.474
329 17.9972 3.95289 1.4 16.6259 -79.2351 126.354
330 18.4972 3.95289 1.4 16.5597 -82.7606 -137.301
331 18.9972 3.95289 1.4 16.5083 -77.1509 -25.0262
332 19.4972 3.95289 1.4 16.472 -71.7538 -2.27794
333 19.9972 3.95289 1.4 16.4508 -71.2857 76.853
334 20.4972 3.95289 1.4 16.4448 -82.1326 175.46
335 20.9972 3.95289 1.4 16.454 -65.4351 25.3009
336 21.4972 3.95289 1.4 16.4784 -67.011 23.1121
337 21.9972 3.95289 1.4 16.5178 -71.6117 -38.8356
338 22.4972 3.95289 1.4 16.5723 -74.2911 177.523
339 22.9972 3.95289 1.4 16.6416 -65.4753 133.183
340 23.4972 3.95289 1.4 16.7256 -63.1572 -166.514
341 23.9972 3.95289 1.4 16.824 -61.3643 156.754
342 24.4972 3.95289 1.4 16.9367 -59.0728 127.692
343 24.9972 3.95289 1.4 17.0632 -87.5078 118.754
344 25.4972 3.95289 1.4 17.2034 -71.9086 -21.2017
345 25.9972 3.95289 1.4 17.3568 -81.1675 -107.603
346 26.4972 3.95289 1.4 17.5231 -71.0148 -143.302
347 26.9972 3.95289 1.4 17.7021 -87.4335 44.0928
348 27.4972 3.95289 1.4 17.8932 -250 0
349 27.9972 3.95289 1.4 18.0961 -250 0
350 28.4972 3.95289 1.4 18.3104 -250 0
351 28.9972 3.95289 1.4 18.5357 -250 0
352 29.4972 3.95289 1.4 18.7717 -250 0
353 29.9972 3.95289 1.4 19.0178 -250 0
354 30.4972 3.95289 1.4 19.2738 -250 0
355 -28.0028 4.45289 1.4 51.004 -250 0
356 -27.5028 4.45289 1.4 50.5293 -250 0
357 -27.0028 4.45289 1.4 50.0551 -250 0
358 -26.5028 4.45289 1.4 49.5814 -250 0
359 -26.0028 4.45289 1.4 49.1082 -250 0
360 -25.5028 4.45289 1.4 48.6356 -250 0
361 -25.0028 4.45289 1.4 48.1635 -250 0
362 -24.5028 4.45289 1.4 47.692 -250 0
363 -24.0028 4.45289 1.4 47.221 -250 0
364 -23.5028 4.45289 1.4 46.7507 -250 0
365 -23.0028 4.45289 1.4 46.281 -250 0
366 -22.5028 4.45289 1.4 45.8119 -250 0
367 -22.0028 4.45289 1.4 45.3435 -250 0
368 -21.5028 4.45289 1.4 44.8758 -250 0
369 -21.0028 4.45289 1.4 44.4088 -250 0
370 -20.5028 4.45289 1.4 43.9425 -250 0
371 -20.0028 4.45289 1.4 43.4769 -250 0
372 -19.5028 4.45289 1.4 43.0122 -250 0
373 -19.0028 4.45289 1.4 42.5482 -250 0
374 -18.5028 4.45289 1.4 42.085 -250 0
375 -18.0028 4.45289 1.4 41.6227 -250 0
376 -17.5028 4.45289 1.4 41.1613 -250 0
377 -17.0028 4.45289 1.4 40.7008 -250 0
378 -16.5028 4.45289 1.4 40.2413 -250 0
379 -16.0028 4.45289 1.4 39.7827 -250 0
380 -15.5028 4.45289 1.4 39.3251 -250 0
381 -15.0028 4.45289 1.4 38.8686 -250 0
382 -14.5028 4.45289 1.4 38.4131 -250 0
383 -14.0028 4.45289 1.4 37.9588 -250 0
384 -13.5028 4.45289 1.4 37.5057 -116.898 102.959
385 -13.0028 4.45289 1.4 37.0537 -250 0
386 -12.5028 4.45289 1.4 36.603 -250 0
387 -12.0028 4.45289 1.4 36.1536 -87.0335 -159.214
388 -11.5028 4.45289 1.4 35.7055 -93.3032 -167.592
389 -11.0028 4.45289 1.4 35.2589 -89.538 137.009
390 -10.5028 4.45289 1.4 34.8136 -100.262 22.3106
391 -10.0028 4.45289 1.4 34.3699 -95.796 -122.162
392 -9.50282 4.45289 1.4 33.9278 -250 0
393 -9.00282 4.45289 1.4 33.4873 -250 0
394 -8.50282 4.45289 1.4 33.0484 -250 0
395 -8.00282 4.45289 1.4 32.6114 -250 0
396 -7.50282 4.45289 1.4 32.1761 -250 0
397 -7.00282 4.45289 1.4 31.7428 -250 0
398 -6.50282 4.45289 1.4 31.3115 -104.895 -160.891
399 -6.00282 4.45289 1.4 30.8822 -250 0
400 -5.50282 4.45289 1.4 30.4551 -109.513 30.9745
401 -5.00282 4.45289 1.4 30.0302 -117.741 -144.986
402 -4.50282 4.45289 1.4 29.6077 -117.538 19.7432
403 -4.00282 4.45289 1.4 29.1877 -250 0
404 -3.50282 4.45289 1.4 28.7702 -108.643 -155.849
405 -3.00282 4.45289 1.4 28.3553 -250 0
406 -2.50282 4.45289 1.4 27.9433 -107.428 93.1213
407 -2.00282 4.45289 1.4 27.5342 -108.07 85.2767
408 -1.50282 4.45289 1.4 27.1281 -110.688 39.0096
409 -1.00282 4.45289 1.4 26.7252 -109.237 -137.424
410 -0.50282 4.45289 1.4 26.3256 -107.514 -169.561
411 -0.00282 4.45289 1.4 25.9295 -124.141 -13.0606
412 0.49718 4.45289 1.4 25.5371 -97.2216 -101.269
413 0.99718 4.45289 1.4 25.1484 -103.1 -116.647
414 1.49718 4.45289 1.4 24.7638 -95.5728 -30.2332
415 1.99718 4.45289 1.4 24.3834 -99.8732 -65.077
416 2.49718 4.45289 1.4 24.0073 -103.392 -62.5376
417 2.99718 4.45289 1.4 23.6359 -92.5127 -77.6495
418 3.49718 4.45289 1.4 23.2692 -99.0574 -24.4932
419 3.99718 4.45289 1.4 22.9076 -65.2916 -112.18
420 4.49718 4.45289 1.4 22.5513 -66.8866 -130.599
421 4.99718 4.45289 1.4 22.2005 -66.2654 -175.442
422 5.49718 4.45289 1.4 21.8556 -84.8876 -128.593
423 5.99718 4.45289 1.4 21.5167 -78.6161 -176.442
424 6.49718 4.45289 1.4 21.1842 -87.822 10.0488
425 6.99718 4.45289 1.4 20.8584 -87.7016 -83.7898
426 7.49718 4.45289 1.4 20.5396 -70.047 83.8067
427 7.99718 4.45289 1.4 20.2281 -69.7355 -49.4165
428 8.49718 4.45289 1.4 19.9244 -68.9922 32.4753
429 8.99718 4.45289 1.4 19.6286 -71.7205 -170.091
430 9.49718 4.45289 1.4 19.3413 -250 0
431 9.99718 4.45289 1.4 19.0627 -250 0
432 10.4972 4.45289 1.4 18.7933 -73.2502 -24.9819
433 10.9972 4.45289 1.4 18.5335 -68.3234 -117.492
434 11.4972 4.45289 1.4 18.2837 -68.3902 85.1529
435 11.9972 4.45289 1.4 18.0443 -87.1728 -93.955
436 12.4972 4.45289 1.4 17.8157 -250 0
437 12.9972 4.45289 1.4 17.5983 -76.2553 -141.928
438 13.4972 4.45289 1.4 17.3926 -69.9257 124.701
439 13.9972 4.45289 1.4 17.199 -118.943 150.359
440 14.4972 4.45289 1.4 17.0179 -93.5049 -39.0615
441 14.9972 4.45289 1.4 16.8497 -96.4812 4.74825
442 15.4972 4.45289 1.4 16.6947 -98.8224 -89.5809
443 15.9972 4.45289 1.4 16.5534 -92.1572 130.472
444 16.4972 4.45289 1.4 16.4261 -103.287 171.452
445 16.9972 4.45289 1.4 16.3132 -85.8568 50.0853
446 17.4972 4.45289 1.4 16.2149 -79.8467 -148.879
447 17.9972 4.45289 1.4 16.1315 -76.6348 60.8768
448 18.4972 4.45289 1.4 16.0632 -87.0541 72.8591
449 18.9972 4.45289 1.4 16.0103 -75.566 -18.4193
450 19.4972 4.45289 1.4 15.9729 -73.8193 -40.6357
451 19.9972 4.45289 1.4 15.951 -69.8416 41.6289
452 20.4972 4.45289 1.4 15.9448 -77.8212 -89.958
453 20.9972 4.45289 1.4 15.9543 -73.3967 -148.442
454 21.4972 4.45289 1.4 15.9794 -73.737 46.1686
455 21.9972 4.45289 1.4 16.0201 -73.4005 -8.41945
456 22.4972 4.45289 1.4 16.0763 -73.0574 -76.8743
457 22.9972 4.45289 1.4 16.1477 -60.6656 15.708
458 23.4972 4.45289 1.4 16.2343 -61.6326 5.21701
459 23.9972 4.45289 1.4 16.3357 -66.8808 8.09081
460 24.4972 4.45289 1.4 16.4516 -52.3293 -55.1369
461 24.9972 4.45289 1.4 16.5819 -69.2184 -64.539
462 25.4972 4.45289 1.4 16.7261 -80.3763 60.0155
463 25.9972 4.45289 1.4 16.8838 -65.9413 102.287
464 26.4972 4.45289 1.4 17.0548 -92.8905 69.17
465 26.9972 4.45289 1.4 17.2386 -97.3281 56.3351
466 27.4972 4.45289 1.4 17.4348 -250 0
467 27.9972 4.45289 1.4 17.6429 -250 0
468 28.4972 4.45289 1.4 17.8627 -250 0
469 28.9972 4.45289 1.4 18.0936 -250 0
470 29.4972 4.45289 1.4 18.3352 -250 0
471 29.9972 4.45289 1.4 18.5872 -250 0
472 30.4972 4.45289 1.4 18.849 -250 0
473 -28.0028 4.95289 1.4 50.8499 -250 0
474 -27.5028 4.95289 1.4 50.3737 -250 0
475 -27.0028 4.95289 1.4 49.8981 -250 0
476 -26.5028 4.95289 1.4 49.4228 -250 0
477 -26.0028 4.95289 1.4 48.9481 -250 0
478 -25.5028 4.95289 1.4 48.4739 -250 0
479 -25.0028 4.95289 1.4 48.0003 -250 0
480 -24.5028 4.95289 1.4 47.5271 -250 0
481 -24.0028 4.95289 1.4 47.0545 -250 0
482 -23.5028 4.95289 1.4 46.5825 -250 0
483 -23.0028 4.95289 1.4 46.1111 -250 0
484 -22.5028 4.95289 1.4 45.6403 -250 0
485 -22.0028 4.95289 1.4 45.1701 -250 0
486 -21.5028 4.95289 1.4 44.7006 -250 0
487 -21.0028 4.95289 1.4 44.2317 -250 0
488 -20.5028 4.95289 1.4 43.7635 -250 0
489 -20.0028 4.95289 1.4 43.2961 -250 0
490 -19.5028 4.95289 1.4 42.8293 -250 0
491 -19.0028 4.95289 1.4 42.3634 -250 0
492 -18.5028 4.95289 1.4 41.8982 -250 0
493 -18.0028 4.95289 1.4 41.4338 -250 0
494 -17.5028 4.95289 1.4 40.9702 -250 0
495 -17.0028 4.95289 1.4 40.5076 -250 0
496 -16.5028 4.95289 1.4 40.0458 -250 0
497 -16.0028 4.95289 1.4 39.5849 -250 0
498 -15.5028 4.95289 1.4 39.1251 -250 0
499 -15.0028 4.95289 1.4 38.6662 -250 0
500 -14.5028 4.95289 1.4 38.2083 -250 0
501 -14.0028 4.95289 1.4 37.7515 -250 0
502 -13.5028 4.95289 1.4 37.2958 -250 0
503 -13.0028 4.95289 1.4 36.8413 -100.864 115
504 -12.5028 4.95289 1.4 36.388 -117.915 -118.205
505 -12.0028 4.95289 1.4 35.9359 -101.438 -115.787
506 -11.5028 4.95289 1.4 35.4851 -85.512 120.625
507 -11.0028 4.95289 1.4 35.0356 -109.027 37.788
508 -10.5028 4.95289 1.4 34.5875 -90.6772 49.0893
509 -10.0028 4.95289 1.4 34.1408 -105.443 -121.203
510 -9.50282 4.95289 1.4 33.6957 -108.054 40.5705
511 -9.00282 4.95289 1.4 33.2521 -250 0
512 -8.50282 4.95289 1.4 32.8101 -250 0
513 -8.00282 4.95289 1.4 32.3698 -250 0
514 -7.50282 4.95289 1.4 31.9313 -250 0
515 -7.00282 4.95289 1.4 31.4946 -250 0
516 -6.50282 4.95289 1.4 31.0598 -250 0
517 -6.00282 4.95289 1.4 30.627 -108.91 87.5707
518 -5.50282 4.95289 1.4 30.1963 -250 0
519 -5.00282 4.95289 1.4 29.7678 -109.286 -170.856
520 -4.50282 4.95289 1.4 29.3415 -114.264 -100.726
521 -4.00282 4.95289 1.4 28.9176 -250 0
522 -3.50282 4.95289 1.4 28.4961 -250 0
523 -3.00282 4.95289 1.4 28.0772 -250 0
524 -2.50282 4.95289 1.4 27.661 -250 0
525 -2.00282 4.95289 1.4 27.2477 -107.001 23.338
526 -1.50282 4.95289 1.4 26.8372 -109.576 -14.2494
527 -1.00282 4.95289 1.4 26.4299 -106.384 -32.2801
528 -0.50282 4.95289 1.4 26.0258 -118.93 -9.37356
529 -0.00282 4.95289 1.4 25.6251 -95.9967 -76.2097
530 0.49718 4.95289 1.4 25.2279 -97.1177 -149.462
531 0.99718 4.95289 1.4 24.8344 -106.786 155.705
532 1.49718 4.95289 1.4 24.4449 -96.7125 175.999
533 1.99718 4.95289 1.4 24.0594 -103.339 -123.22
534 2.49718 4.95289 1.4 23.6782 -102.896 -118.563
535 2.99718 4.95289 1.4 23.3015 -103.106 -133.092
536 3.49718 4.95289 1.4 22.9295 -92.8782 -172.47
537 3.99718 4.95289 1.4 22.5624 -65.7146 -167.357
538 4.49718 4.95289 1.4 22.2006 -65.9219 -176.107
539 4.99718 4.95289 1.4 21.8442 -66.1289 163.239
540 5.49718 4.95289 1.4 21.4935 -67.5945 99.8865
541 5.99718 4.95289 1.4 21.1488 -87.6415 24.4347
542 6.49718 4.95289 1.4 20.8105 -250 0
543 6.99718 4.95289 1.4 20.4787 -87.9889 -98.1675
544 7.49718 4.95289 1.4 20.1539 -80.0797 130.91
545 7.99718 4.95289 1.4 19.8364 -69.1783 2.53564
546 8.49718 4.95289 1.4 19.5265 -67.473 171.463
547 8.99718 4.95289 1.4 19.2247 -69.2111 -58.9718
548 9.49718 4.95289 1.4 18.9312 -76.7365 69.8465
549 9.99718 4.95289 1.4 18.6465 -250 0
550 10.4972 4.95289 1.4 18.371 -61.9294 -155.953
551 10.9972 4.95289 1.4 18.1052 -69.9469 18.9826
552 11.4972 4.95289 1.4 17.8494 -68.4532 -137.046
553 11.9972 4.95289 1.4 17.604 -250 0
554 12.4972 4.95289 1.4 17.3696 -250 0
555 12.9972 4.95289 1.4 17.1466 -89.4491 81.065
556 13.4972 4.95289 1.4 16.9354 -74.8229 150.278
557 13.9972 4.95289 1.4 16.7365 -92.066 -10.0336
558 14.4972 4.95289 1.4 16.5503 -95.3729 19.8456
559 14.9972 4.95289 1.4 16.3773 -96.8607 112.132
560 15.4972 4.95289 1.4 16.2178 -88.2981 93.4044
561 15.9972 4.95289 1.4 16.0724 -90.6299 -110.38
562 16.4972 4.95289 1.4 15.9412 -85.1864 71.5029
563 16.9972 4.95289 1.4 15.8248 -102.818 71.137
564 17.4972 4.95289 1.4 15.7235 -80.0219 -48.4252
565 17.9972 4.95289 1.4 15.6375 -81.114 2.30506
566 18.4972 4.95289 1.4 15.567 -76.0763 -46.2523
567 18.9972 4.95289 1.4 15.5124 -70.2418 17.2202
568 19.4972 4.95289 1.4 15.4738 -69.2586 119.096
569 19.9972 4.95289 1.4 15.4512 -67.1897 -108.444
570 20.4972 4.95289 1.4 15.4448 -76.9627 44.0864
571 20.9972 4.95289 1.4 15.4546 -75.7815 19.9861
572 21.4972 4.95289 1.4 15.4805 -73.983 -28.0563
573 21.9972 4.95289 1.4 15.5226 -67.3619 -56.7319
574 22.4972 4.95289 1.4 15.5805 -67.143 -145.678
575 22.9972 4.95289 1.4 15.6542 -64.7722 -105.445
576 23.4972 4.95289 1.4 15.7435 -60.6875 -122.399
577 23.9972 4.95289 1.4 15.848 -53.8592 -177.662
578 24.4972 4.95289 1.4 15.9675 -55.1761 87.1786
579 24.9972 4.95289 1.4 16.1017 -113.219 124.319
580 25.4972 4.95289 1.4 16.2501 -119.17 70.9153
581 25.9972 4.95289 1.4 16.4125 -121.99 27.543
582 26.4972 4.95289 1.4 16.5883 -123.819 -12.9811
583 26.9972 4.95289 1.4 16.7772 -125.173 -52.3257
584 27.4972 4.95289 1.4 16.9787 -250 0
585 27.9972 4.95289 1.4 17.1924 -250 0
586 28.4972 4.95289 1.4 17.4178 -250 0
587 28.9972 4.95289 1.4 17.6545 -250 0
588 29.4972 4.95289 1.4 17.9021 -250 0
589 29.9972 4.95289 1.4 18.1601 -250 0
590 30.4972 4.95289 1.4 18.428 -250 0
591 -28.0028 5.45289 1.4 50.7003 -250 0
592 -27.5028 5.45289 1.4 50.2227 -250 0
593 -27.0028 5.45289 1.4 49.7456 -250 0
594 -26.5028 5.45289 1.4 49.2689 -250 0
595 -26.0028 5.45289 1.4 48.7927 -250 0
596 -25.5028 5.45289 1.4 48.317 -250 0
597 -25.0028 5.45289 1.4 47.8417 -250 0
598 -24.5028 5.45289 1.4 47.367 -250 0
599 -24.0028 5.45289 1.4 46.8928 -250 0
600 -23.5028 5.45289 1.4 46.4192 -250 0
601 -23.0028 5.45289 1.4 45.9461 -250 0
602 -22.5028 5.45289 1.4 45.4735 -250 0
603 -22.0028 5.45289 1.4 45.0016 -250 0
604 -21.5028 5.45289 1.4 44.5303 -250 0
605 -21.0028 5.45289 1.4 44.0596 -250 0
606 -20.5028 5.45289 1.4 43.5896 -250 0
607 -20.0028 5.45289 1.4 43.1202 -250 0
608 -19.5028 5.45289 1.4 42.6516 -250 0
609 -19.0028 5.45289 1.4 42.1836 -250 0
610 -18.5028 5.45289 1.4 41.7164 -250 0
611 -18.0028 5.45289 1.4 41.25 -250 0
612 -17.5028 5.45289 1.4 40.7844 -250 0
613 -17.0028 5.45289 1.4 40.3196 -250 0
614 -16.5028 5.45289 1.4 39.8556 -250 0
615 -16.0028 5.45289 1.4 39.3926 -250 0
616 -15.5028 5.45289 1.4 38.9304 -250 0
617 -15.0028 5.45289 1.4 38.4692 -250 0
618 -14.5028 5.45289 1.4 38.009 -250 0
619 -14.0028 5.45289 1.4 37.5497 -250 0
620 -13.5028 5.45289 1.4 37.0916 -250 0
621 -13.0028 5.45289 1.4 36.6345 -111.68 163.03
622 -12.5028 5.45289 1.4 36.1786 -102.277 120.525
623 -12.0028 5.45289 1.4 35.7238 -95.6143 -19.574
624 -11.5028 5.45289 1.4 35.2703 -96.0116 154.563
625 -11.0028 5.45289 1.4 34.8181 -87.1738 42.8044
626 -10.5028 5.45289 1.4 34.3671 -92.3349 38.1854
627 -10.0028 5.45289 1.4 33.9176 -90.5928 -26.5166
628 -9.50282 5.45289 1.4 33.4695 -250 0
629 -9.00282 5.45289 1.4 33.0228 -103.414 -73.6596
630 -8.50282 5.45289 1.4 32.5777 -107.578 93.5668
631 -8.00282 5.45289 1.4 32.1343 -250 0
632 -7.50282 5.45289 1.4 31.6925 -250 0
633 -7.00282 5.45289 1.4 31.2525 -250 0
634 -6.50282 5.45289 1.4 30.8143 -250 0
635 -6.00282 5.45289 1.4 30.378 -250 0
636 -5.50282 5.45289 1.4 29.9437 -120.071 -19.4485
637 -5.00282 5.45289 1.4 29.5115 -112.042 127.926
638 -4.50282 5.45289 1.4 29.0814 -250 0
639 -4.00282 5.45289 1.4 28.6536 -109.44 139.625
640 -3.50282 5.45289 1.4 28.2282 -250 0
641 -3.00282 5.45289 1.4 27.8053 -250 0
642 -2.50282 5.45289 1.4 27.385 -250 0
643 -2.00282 5.45289 1.4 26.9674 -250 0
644 -1.50282 5.45289 1.4 26.5526 -112.062 -23.3487
645 -1.00282 5.45289 1.4 26.1409 -107.997 -55.8406
646 -0.50282 5.45289 1.4 25.7322 -93.8002 -151.753
647 -0.00282 5.45289 1.4 25.3269 -103.623 -178.832
648 0.49718 5.45289 1.4 24.9249 -107.57 161.321
649 0.99718 5.45289 1.4 24.5266 -100.146 -22.415
650 1.49718 5.45289 1.4 24.1321 -104.04 45.9751
651 1.99718 5.45289 1.4 23.7415 -104.237 139.095
652 2.49718 5.45289 1.4 23.3551 -103.146 163.794
653 2.99718 5.45289 1.4 22.9731 -102.63 170.019
654 3.49718 5.45289 1.4 22.5957 -108.363 82.7794
655 3.99718 5.45289 1.4 22.2232 -65.8481 110.897
656 4.49718 5.45289 1.4 21.8557 -66.207 119.181
657 4.99718 5.45289 1.4 21.4936 -65.8417 89.3047
658 5.49718 5.45289 1.4 21.1371 -63.7455 98.0309
659 5.99718 5.45289 1.4 20.7865 -64.3282 23.5772
660 6.49718 5.45289 1.4 20.4421 -250 0
661 6.99718 5.45289 1.4 20.1043 -250 0
662 7.49718 5.45289 1.4 19.7734 -88.1863 151.097
663 7.99718 5.45289 1.4 19.4496 -79.5705 31.787
664 8.49718 5.45289 1.4 19.1335 -71.3603 -98.5802
665 8.99718 5.45289 1.4 18.8253 -68.9706 83.9031
666 9.49718 5.45289 1.4 18.5255 -71.4812 -152.058
667 9.99718 5.45289 1.4 18.2345 -96.0274 37.8129
668 10.4972 5.45289 1.4 17.9527 -71.7214 125.212
669 10.9972 5.45289 1.4 17.6806 -66.0389 105.119
670 11.4972 5.45289 1.4 17.4185 -86.8382 -102.585
671 11.9972 5.45289 1.4 17.167 -250 0
672 12.4972 5.45289 1.4 16.9266 -250 0
673 12.9972 5.45289 1.4 16.6977 -250 0
674 13.4972 5.45289 1.4 16.4807 -93.9802 -92.1056
675 13.9972 5.45289 1.4 16.2763 -250 0
676 14.4972 5.45289 1.4 16.0847 -250 0
677 14.9972 5.45289 1.4 15.9066 -250 0
678 15.4972 5.45289 1.4 15.7424 -250 0
679 15.9972 5.45289 1.4 15.5925 -250 0
680 16.4972 5.45289 1.4 15.4573 -122.623 98.2115
681 16.9972 5.45289 1.4 15.3372 -119.435 -116.553
682 17.4972 5.45289 1.4 15.2326 -77.2374 -59.7177
683 17.9972 5.45289 1.4 15.1438 -86.2252 113.039
684 18.4972 5.45289 1.4 15.0711 -71.8967 -45.9846
685 18.9972 5.45289 1.4 15.0147 -69.6184 -37.0017
686 19.4972 5.45289 1.4 14.9747 -68.3695 113.816
687 19.9972 5.45289 1.4 14.9514 -73.6519 -102.52
688 20.4972 5.45289 1.4 14.9448 -77.9135 -87.1545
689 20.9972 5.45289 1.4 14.9549 -76.8616 116.12
690 21.4972 5.45289 1.4 14.9817 -75.4686 -131.375
691 21.9972 5.45289 1.4 15.0251 -64.7423 -79.7841
692 22.4972 5.45289 1.4 15.085 -63.078 42.4451
693 22.9972 5.45289 1.4 15.1611 -65.8646 68.0174
694 23.4972 5.45289 1.4 15.2533 -60.3254 61.8256
695 23.9972 5.45289 1.4 15.3611 -54.6744 -22.0056
696 24.4972 5.45289 1.4 15.4844 -58.5526 -137.966
697 24.9972 5.45289 1.4 15.6227 -95.5417 -20.6754
698 25.4972 5.45289 1.4 15.7757 -103.396 -100.394
699 25.9972 5.45289 1.4 15.9428 -108.068 -102.911
700 26.4972 5.45289 1.4 16.1238 -111.318 -109.947
701 26.9972 5.45289 1.4 16.318 -113.661 -124.165
702 27.4972 5.45289 1.4 16.5252 -250 0
703 27.9972 5.45289 1.4 16.7447 -250 0
704 28.4972 5.45289 1.4 16.976 -250 0
705 28.9972 5.45289 1.4 17.2188 -250 0
706 29.4972 5.45289 1.4 17.4726 -250 0
707 29.9972 5.45289 1.4 17.7368 -250 0
708 30.4972 5.45289 1.4 18.011 -250 0
709 -28.0028 5.95289 1.4 50.5551 -250 0
710 -27.5028 5.95289 1.4 50.0762 -250 0
711 -27.0028 5.95289 1.4 49.5976 -250 0
712 -26.5028 5.95289 1.4 49.1195 -250 0
713 -26.0028 5.95289 1.4 48.6419 -250 0
714 -25.5028 5.95289 1.4 48.1646 -250 0
715 -25.0028 5.95289 1.4 47.6879 -250 0
716 -24.5028 5.95289 1.4 47.2116 -250 0
717 -24.0028 5.95289 1.4 46.7359 -250 0
718 -23.5028 5.95289 1.4 46.2606 -250 0
719 -23.0028 5.95289 1.4 45.7859 -250 0
720 -22.5028 5.95289 1.4 45.3117 -250 0
721 -22.0028 5.95289 1.4 44.838 -250 0
722 -21.5028 5.95289 1.4 44.365 -250 0
723 -21.0028 5.95289 1.4 43.8925 -250 0
724 -20.5028 5.95289 1.4 43.4207 -250 0
725 -20.0028 5.95289 1.4 42.9495 -250 0
726 -19.5028 5.95289 1.4 42.479 -250 0
727 -19.0028 5.95289 1.4 42.0091 -250 0
728 -18.5028 5.95289 1.4 41.5399 -250 0
729 -18.0028 5.95289 1.4 41.0715 -250 0
730 -17.5028 5.95289 1.4 40.6038 -250 0
731 -17.0028 5.95289 1.4 40.1369 -250 0
732 -16.5028 5.95289 1.4 39.6708 -250 0
733 -16.0028 5.95289 1.4 39.2056 -250 0
734 -15.5028 5.95289 1.4 38.7412 -250 0
735 -15.0028 5.95289 1.4 38.2777 -250 0
736 -14.5028 5.95289 1.4 37.8152 -250 0
737 -14.0028 5.95289 1.4 37.3536 -250 0
738 -13.5028 5.95289 1.4 36.893 -250 0
739 -13.0028 5.95289 1.4 36.4334 -99.0474 -2.33958
740 -12.5028 5.95289 1.4 35.9749 -96.0853 -150.709
741 -12.0028 5.95289 1.4 35.5176 -101.906 -141.264
742 -11.5028 5.95289 1.4 35.0614 -112.801 85.9164
743 -11.0028 5.95289 1.4 34.6064 -102.2 21.1781
744 -10.5028 5.95289 1.4 34.1527 -86.5274 -18.3361
745 -10.0028 5.95289 1.4 33.7003 -100.868 -1.41557
746 -9.50282 5.95289 1.4 33.2492 -101.522 -138.827
747 -9.00282 5.95289 1.4 32.7996 -250 0
748 -8.50282 5.95289 1.4 32.3514 -250 0
749 -8.00282 5.95289 1.4 31.9048 -250 0
750 -7.50282 5.95289 1.4 31.4598 -250 0
751 -7.00282 5.95289 1.4 31.0165 -250 0
752 -6.50282 5.95289 1.4 30.5749 -250 0
753 -6.00282 5.95289 1.4 30.1351 -250 0
754 -5.50282 5.95289 1.4 29.6973 -100.174 146.966
755 -5.00282 5.95289 1.4 29.2614 -120.654 -101.644
756 -4.50282 5.95289 1.4 28.8277 -108.401 45.3799
757 -4.00282 5.95289 1.4 28.3961 -250 0
758 -3.50282 5.95289 1.4 27.9667 -250 0
759 -3.00282 5.95289 1.4 27.5398 -250 0
760 -2.50282 5.95289 1.4 27.1154 -250 0
761 -2.00282 5.95289 1.4 26.6935 -114.931 -134.007
762 -1.50282 5.95289 1.4 26.2745 -250 0
763 -1.00282 5.95289 1.4 25.8583 -93.7479 145.032
764 -0.50282 5.95289 1.4 25.4451 -114.333 79.7109
765 -0.00282 5.95289 1.4 25.0351 -101.548 -44.4198
766 0.49718 5.95289 1.4 24.6284 -94.3908 -123.266
767 0.99718 5.95289 1.4 24.2252 -93.9362 -166.31
768 1.49718 5.95289 1.4 23.8257 -110.359 -12.6423
769 1.99718 5.95289 1.4 23.43 -250 0
770 2.49718 5.95289 1.4 23.0384 -104.168 63.5793
771 2.99718 5.95289 1.4 22.651 -101.12 24.1037
772 3.49718 5.95289 1.4 22.2682 -96.3457 81.8259
773 3.99718 5.95289 1.4 21.89 -101.476 -134.738
774 4.49718 5.95289 1.4 21.5169 -65.3255 42.4436
775 4.99718 5.95289 1.4 21.149 -66.8849 34.0734
776 5.49718 5.95289 1.4 20.7866 -65.4217 48.0436
777 5.99718 5.95289 1.4 20.43 -64.0357 14.9924
778 6.49718 5.95289 1.4 20.0795 -64.2267 -40.7148
779 6.99718 5.95289 1.4 19.7355 -250 0
780 7.49718 5.95289 1.4 19.3982 -250 0
781 7.99718 5.95289 1.4 19.0681 -250 0
782 8.49718 5.95289 1.4 18.7456 -79.4111 -69.4603
783 8.99718 5.95289 1.4 18.4309 -71.0642 -179.127
784 9.49718 5.95289 1.4 18.1246 -70.028 -2.14597
785 9.99718 5.95289 1.4 17.827 -69.432 115.852
786 10.4972 5.95289 1.4 17.5387 -70.0221 98.1602
787 10.9972 5.95289 1.4 17.26 -64.6825 -79.0823
788 11.4972 5.95289 1.4 16.9915 -88.4727 158.138
789 11.9972 5.95289 1.4 16.7336 -250 0
790 12.4972 5.95289 1.4 16.4868 -250 0
791 12.9972 5.95289 1.4 16.2517 -88.28 113.355
792 13.4972 5.95289 1.4 16.0287 -67.246 62.9774
793 13.9972 5.95289 1.4 15.8184 -250 0
794 14.4972 5.95289 1.4 15.6213 -250 0
795 14.9972 5.95289 1.4 15.4378 -250 0
796 15.4972 5.95289 1.4 15.2686 -250 0
797 15.9972 5.95289 1.4 15.1139 -250 0
798 16.4972 5.95289 1.4 14.9744 -108.735 -5.87139
799 16.9972 5.95289 1.4 14.8505 -99.5779 -70.2617
800 17.4972 5.95289 1.4 14.7424 -96.5747 -161.069
801 17.9972 5.95289 1.4 14.6506 -77.42 -108.976
802 18.4972 5.95289 1.4 14.5754 -76.5931 -58.7902
803 18.9972 5.95289 1.4 14.5171 -68.0631 28.2586
804 19.4972 5.95289 1.4 14.4758 -68.2929 -155.252
805 19.9972 5.95289 1.4 14.4517 -74.7777 155.734
806 20.4972 5.95289 1.4 14.4448 -78.8319 114.706
807 20.9972 5.95289 1.4 14.4553 -73.4333 92.1207
808 21.4972 5.95289 1.4 14.483 -64.9237 -78.9489
809 21.9972 5.95289 1.4 14.5279 -65.6963 -107.054
810 22.4972 5.95289 1.4 14.5898 -62.0902 -40.6851
811 22.9972 5.95289 1.4 14.6685 -58.8818 -81.0517
812 23.4972 5.95289 1.4 14.7637 -54.5576 -146.863
813 23.9972 5.95289 1.4 14.8751 -59.0517 117.647
814 24.4972 5.95289 1.4 15.0024 -63.2834 14.1206
815 24.9972 5.95289 1.4 15.1451 -129.688 -102.33
816 25.4972 5.95289 1.4 15.3028 -93.326 17.0304
817 25.9972 5.95289 1.4 15.4751 -104.174 71.1617
818 26.4972 5.95289 1.4 15.6615 -106.35 -179.269
819 26.9972 5.95289 1.4 15.8614 -109.246 -129.09
820 27.4972 5.95289 1.4 16.0744 -250 0
821 27.9972 5.95289 1.4 16.3 -250 0
822 28.4972 5.95289 1.4 16.5376 -250 0
823 28.9972 5.95289 1.4 16.7867 -250 0
824 29.4972 5.95289 1.4 17.0469 -250 0
825 29.9972 5.95289 1.4 17.3176 -250 0
826 30.4972 5.95289 1.4 17.5983 -250 0
827 -28.0028 6.45289 1.4 50.4145 -250 0
828 -27.5028 6.45289 1.4 49.9342 -250 0
829 -27.0028 6.45289 1.4 49.4543 -250 0
830 -26.5028 6.45289 1.4 48.9748 -250 0
831 -26.0028 6.45289 1.4 48.4957 -250 0
832 -25.5028 6.45289 1.4 48.0171 -250 0
833 -25.0028 6.45289 1.4 47.5388 -250 0
834 -24.5028 6.45289 1.4 47.0611 -250 0
835 -24.0028 6.45289 1.4 46.5837 -250 0
836 -23.5028 6.45289 1.4 46.1069 -250 0
837 -23.0028 6.45289 1.4 45.6306 -250 0
838 -22.5028 6.45289 1.4 45.1548 -250 0
839 -22.0028 6.45289 1.4 44.6795 -250 0
840 -21.5028 6.45289 1.4 44.2047 -250 0
841 -21.0028 6.45289 1.4 43.7305 -250 0
842 -20.5028 6.45289 1.4 43.2569 -250 0
843 -20.0028 6.45289 1.4 42.7839 -250 0
844 -19.5028 6.45289 1.4 42.3115 -250 0
845 -19.0028 6.45289 1.4 41.8398 -250 0
846 -18.5028 6.45289 1.4 41.3687 -250 0
847 -18.0028 6.45289 1.4 40.8983 -250 0
848 -17.5028 6.45289 1.4 40.4287 -250 0
849 -17.0028 6.45289 1.4 39.9597 -250 0
850 -16.5028 6.45289 1.4 39.4915 -250 0
851 -16.0028 6.45289 1.4 39.0241 -250 0
852 -15.5028 6.45289 1.4 38.5576 -250 0
853 -15.0028 6.45289 1.4 38.0918 -250 0
854 -14.5028 6.45289 1.4 37.627 -250 0
855 -14.0028 6.45289 1.4 37.1631 -250 0
856 -13.5028 6.45289 1.4 36.7001 -250 0
857 -13.0028 6.45289 1.4 36.2381 -250 0
858 -12.5028 6.45289 1.4 35.7771 -250 0
859 -12.0028 6.45289 1.4 35.3172 -250 0
860 -11.5028 6.45289 1.4 34.8584 -250 0
861 -11.0028 6.45289 1.4 34.4007 -101.597 -81.1077
862 -10.5028 6.45289 1.4 33.9442 -105.195 152.887
863 -10.0028 6.45289 1.4 33.489 -86.7385 -92.5967
864 -9.50282 6.45289 1.4 33.0351 -95.6561 -155.302
865 -9.00282 6.45289 1.4 32.5825 -94.8024 -122.725
866 -8.50282 6.45289 1.4 32.1313 -117.954 -111.933
867 -8.00282 6.45289 1.4 31.6816 -250 0
868 -7.50282 6.45289 1.4 31.2334 -250 0
869 -7.00282 6.45289 1.4 30.7868 -250 0
870 -6.50282 6.45289 1.4 30.3419 -250 0
871 -6.00282 6.45289 1.4 29.8987 -250 0
872 -5.50282 6.45289 1.4 29.4573 -250 0
873 -5.00282 6.45289 1.4 29.0179 -98.3168 65.9441
874 -4.50282 6.45289 1.4 28.5804 -250 0
875 -4.00282 6.45289 1.4 28.145 -108.404 -29.8828
876 -3.50282 6.45289 1.4 27.7118 -250 0
877 -3.00282 6.45289 1.4 27.2809 -250 0
878 -2.50282 6.45289 1.4 26.8523 -115.207 -19.7552
879 -2.00282 6.45289 1.4 26.4263 -114.832 66.3971
880 -1.50282 6.45289 1.4 26.0029 -91.0026 47.7001
881 -1.00282 6.45289 1.4 25.5823 -100.634 -13.0657
882 -0.50282 6.45289 1.4 25.1646 -98.4916 -141.434
883 -0.00282 6.45289 1.4 24.75 -106.612 147.53
884 0.49718 6.45289 1.4 24.3385 -76.1754 120.971
885 0.99718 6.45289 1.4 23.9304 -93.2203 178.265
886 1.49718 6.45289 1.4 23.5259 -102.648 -67.8073
887 1.99718 6.45289 1.4 23.1251 -111.349 54.5912
888 2.49718 6.45289 1.4 22.7282 -100.704 -98.8088
889 2.99718 6.45289 1.4 22.3355 -96.5963 -8.18789
890 3.49718 6.45289 1.4 21.9471 -93.1516 39.2539
891 3.99718 6.45289 1.4 21.5634 -82.4426 -136.951
892 4.49718 6.45289 1.4 21.1845 -77.878 -21.8076
893 4.99718 6.45289 1.4 20.8107 -65.8162 -48.3368
894 5.49718 6.45289 1.4 20.4423 -63.8389 -29.3594
895 5.99718 6.45289 1.4 20.0796 -64.1754 -32.9012
896 6.49718 6.45289 1.4 19.7229 -62.5008 -63.2183
897 6.99718 6.45289 1.4 19.3725 -63.8242 -115.094
898 7.49718 6.45289 1.4 19.0288 -250 0
899 7.99718 6.45289 1.4 18.6922 -250 0
900 8.49718 6.45289 1.4 18.363 -250 0
901 8.99718 6.45289 1.4 18.0417 -69.4121 -133.976
902 9.49718 6.45289 1.4 17.7287 -74.3645 110.664
903 9.99718 6.45289 1.4 17.4244 -72.4141 -88.5703
904 10.4972 6.45289 1.4 17.1292 -75.2519 111.681
905 10.9972 6.45289 1.4 16.8438 -67.5308 145.324
906 11.4972 6.45289 1.4 16.5685 -68.7663 130.052
907 11.9972 6.45289 1.4 16.3039 -250 0
908 12.4972 6.45289 1.4 16.0505 -250 0
909 12.9972 6.45289 1.4 15.8089 -67.2952 -10.0772
910 13.4972 6.45289 1.4 15.5796 -68.2814 43.7718
911 13.9972 6.45289 1.4 15.3632 -250 0
912 14.4972 6.45289 1.4 15.1601 -250 0
913 14.9972 6.45289 1.4 14.971 -250 0
914 15.4972 6.45289 1.4 14.7964 -250 0
915 15.9972 6.45289 1.4 14.6368 -250 0
916 16.4972 6.45289 1.4 14.4927 -103.519 17.9777
917 16.9972 6.45289 1.4 14.3646 -95.2025 67.6818
918 17.4972 6.45289 1.4 14.2529 -98.3849 158.199
919 17.9972 6.45289 1.4 14.1579 -83.2019 177.345
920 18.4972 6.45289 1.4 14.0801 -73.0068 -27.4495
921 18.9972 6.45289 1.4 14.0197 -60.812 113.681
922 19.4972 6.45289 1.4 13.9769 -77.5006 -88.146
923 19.9972 6.45289 1.4 13.9519 -86.0783 28.6522
924 20.4972 6.45289 1.4 13.9448 -80.8947 -172.19
925 20.9972 6.45289 1.4 13.9557 -66.8622 121.417
926 21.4972 6.45289 1.4 13.9844 -68.0218 -83.815
927 21.9972 6.45289 1.4 14.0309 -62.9415 134.295
928 22.4972 6.45289 1.4 14.095 -67.0198 156.572
929 22.9972 6.45289 1.4 14.1764 -55.7549 111.351
930 23.4972 6.45289 1.4 14.2749 -57.6364 14.541
931 23.9972 6.45289 1.4 14.3901 -66.1655 -86.6258
932 24.4972 6.45289 1.4 14.5216 -61.7557 -21.2608
933 24.9972 6.45289 1.4 14.669 -117.774 41.904
934 25.4972 6.45289 1.4 14.8318 -110.67 -26.4516
935 25.9972 6.45289 1.4 15.0095 -87.7844 147.158
936 26.4972 6.45289 1.4 15.2015 -104.147 -173.534
937 26.9972 6.45289 1.4 15.4074 -106.581 -0.519588
938 27.4972 6.45289 1.4 15.6266 -250 0
939 27.9972 6.45289 1.4 15.8586 -250 0
940 28.4972 6.45289 1.4 16.1027 -250 0
941 28.9972 6.45289 1.4 16.3584 -250 0
942 29.4972 6.45289 1.4 16.6253 -250 0
943 29.9972 6.45289 1.4 16.9028 -250 0
944 30.4972 6.45289 1.4 17.1903 -250 0
945 -28.0028 6.95289 1.4 50.2785 -250 0
946 -27.5028 6.95289 1.4 49.7969 -250 0
947 -27.0028 6.95289 1.4 49.3157 -250 0
948 -26.5028 6.95289 1.4 48.8348 -250 0
949 -26.0028 6.95289 1.4 48.3543 -250 0
950 -25.5028 6.95289 1.4 47.8743 -250 0
951 -25.0028 6.95289 1.4 47.3946 -250 0
952 -24.5028 6.95289 1.4 46.9153 -250 0
953 -24.0028 6.95289 1.4 46.4365 -250 0
954 -23.5028 6.95289 1.4 45.9582 -250 0
955 -23.0028 6.95289 1.4 45.4803 -250 0
956 -22.5028 6.95289 1.4 45.0029 -250 0
957 -22.0028 6.95289 1.4 44.526 -250 0
958 -21.5028 6.95289 1.4 44.0496 -250 0
959 -21.0028 6.95289 1.4 43.5737 -250 0
960 -20.5028 6.95289 1.4 43.0983 -178.703 -48.5235
961 -20.0028 6.95289 1.4 42.6236 -250 0
962 -19.5028 6.95289 1.4 42.1494 -250 0
963 -19.0028 6.95289 1.4 41.6758 -250 0
964 -18.5028 6.95289 1.4 41.2029 -250 0
965 -18.0028 6.95289 1.4 40.7306 -250 0
966 -17.5028 6.95289 1.4 40.2589 -250 0
967 -17.0028 6.95289 1.4 39.788 -250 0
968 -16.5028 6.95289 1.4 39.3178 -250 0
969 -16.0028 6.95289 1.4 38.8483 -250 0
970 -15.5028 6.95289 1.4 38.3796 -250 0
971 -15.0028 6.95289 1.4 37.9117 -250 0
972 -14.5028 6.95289 1.4 37.4446 -250 0
973 -14.0028 6.95289 1.4 36.9784 -250 0
974 -13.5028 6.95289 1.4 36.513 -250 0
975 -13.0028 6.95289 1.4 36.0486 -250 0
976 -12.5028 6.95289 1.4 35.5852 -250 0
977 -12.0028 6.95289 1.4 35.1228 -250 0
978 -11.5028 6.95289 1.4 34.6614 -250 0
979 -11.0028 6.95289 1.4 34.2011 -250 0
980 -10.5028 6.95289 1.4 33.7419 -250 0
981 -10.0028 6.95289 1.4 33.2839 -99.8381 -40.2285
982 -9.50282 6.95289 1.4 32.8271 -94.7063 162.167
983 -9.00282 6.95289 1.4 32.3716 -101.531 -90.9251
984 -8.50282 6.95289 1.4 31.9175 -91.3046 -171.834
985 -8.00282 6.95289 1.4 31.4647 -250 0
986 -7.50282 6.95289 1.4 31.0134 -250 0
987 -7.00282 6.95289 1.4 30.5636 -250 0
988 -6.50282 6.95289 1.4 30.1154 -250 0
989 -6.00282 6.95289 1.4 29.6688 -250 0
990 -5.50282 6.95289 1.4 29.224 -250 0
991 -5.00282 6.95289 1.4 28.7809 -250 0
992 -4.50282 6.95289 1.4 28.3398 -100.542 0.314657
993 -4.00282 6.95289 1.4 27.9007 -250 0
994 -3.50282 6.95289 1.4 27.4636 -250 0
995 -3.00282 6.95289 1.4 27.0287 -250 0
996 -2.50282 6.95289 1.4 26.5961 -115.053 -176.623
997 -2.00282 6.95289 1.4 26.1659 -87.8454 -17.253
998 -1.50282 6.95289 1.4 25.7383 -98.6038 -93.2147
999 -1.00282 6.95289 1.4 25.3133 -99.6069 163.169
1000 -0.50282 6.95289 1.4 24.891 -250 0
1001 -0.00282 6.95289 1.4 24.4717 -107.501 105.153
1002 0.49718 6.95289 1.4 24.0555 -86.5883 1.53131
1003 0.99718 6.95289 1.4 23.6426 -76.2666 48.4409
1004 1.49718 6.95289 1.4 23.233 -97.35 113.678
1005 1.99718 6.95289 1.4 22.8271 -110.83 177.354
1006 2.49718 6.95289 1.4 22.4249 -100.895 -76.9203
1007 2.99718 6.95289 1.4 22.0268 -95.5631 0.364719
1008 3.49718 6.95289 1.4 21.6329 -106.356 -70.002
1009 3.99718 6.95289 1.4 21.2435 -78.706 77.6701
1010 4.49718 6.95289 1.4 20.8587 -81.5956 -151.701
1011 4.99718 6.95289 1.4 20.479 -94.9755 85.5823
1012 5.49718 6.95289 1.4 20.1045 -83.5727 -91.1303
1013 5.99718 6.95289 1.4 19.7356 -63.5029 -110.848
1014 6.49718 6.95289 1.4 19.3726 -64.0133 -117.894
1015 6.99718 6.95289 1.4 19.0158 -62.6255 -145.673
1016 7.49718 6.95289 1.4 18.6655 -63.5914 167.26
1017 7.99718 6.95289 1.4 18.3222 -250 0
1018 8.49718 6.95289 1.4 17.9863 -88.1723 27.4649
1019 8.99718 6.95289 1.4 17.6581 -88.4791 -160.814
1020 9.49718 6.95289 1.4 17.3381 -69.9962 145.331
1021 9.99718 6.95289 1.4 17.0268 -66.4856 -18.4749
1022 10.4972 6.95289 1.4 16.7247 -85.8767 101.765
1023 10.9972 6.95289 1.4 16.4322 -74.11 -65.2513
1024 11.4972 6.95289 1.4 16.1499 -62.3497 -14.6861
1025 11.9972 6.95289 1.4 15.8784 -76.9056 50.0437
1026 12.4972 6.95289 1.4 15.6181 -67.4565 -82.3294
1027 12.9972 6.95289 1.4 15.3697 -68.5087 -35.9983
1028 13.4972 6.95289 1.4 15.1337 -69.9681 -9.63217
1029 13.9972 6.95289 1.4 14.9108 -250 0
1030 14.4972 6.95289 1.4 14.7015 -250 0
1031 14.9972 6.95289 1.4 14.5065 -250 0
1032 15.4972 6.95289 1.4 14.3262 -250 0
1033 15.9972 6.95289 1.4 14.1613 -250 0
1034 16.4972 6.95289 1.4 14.0123 -101.229 -123.904
1035 16.9972 6.95289 1.4 13.8797 -91.6934 125.021
1036 17.4972 6.95289 1.4 13.7641 -99.736 118.88
1037 17.9972 6.95289 1.4 13.6657 -81.3409 -153.199
1038 18.4972 6.95289 1.4 13.5851 -65.9153 7.0987
1039 18.9972 6.95289 1.4 13.5224 -69.7653 56.0677
1040 19.4972 6.95289 1.4 13.4781 -74.7127 173.211
1041 19.9972 6.95289 1.4 13.4522 -78.1479 166.702
1042 20.4972 6.95289 1.4 13.4448 -80.1974 68.29
1043 20.9972 6.95289 1.4 13.4561 -65.761 82.8954
1044 21.4972 6.95289 1.4 13.4859 -67.618 -20.7313
1045 21.9972 6.95289 1.4 13.5341 -61.6481 24.1809
1046 22.4972 6.95289 1.4 13.6005 -59.417 -38.2809
1047 22.9972 6.95289 1.4 13.6849 -56.1813 -95.4607
1048 23.4972 6.95289 1.4 13.7869 -62.4753 165.757
1049 23.9972 6.95289 1.4 13.9061 -66.8996 -153.791
1050 24.4972 6.95289 1.4 14.0422 -64.4867 51.8725
1051 24.9972 6.95289 1.4 14.1945 -114.412 64.0593
1052 25.4972 6.95289 1.4 14.3627 -125.928 127.524
1053 25.9972 6.95289 1.4 14.5461 -104.4 65.8122
1054 26.4972 6.95289 1.4 14.7442 -99.2299 -75.2842
1055 26.9972 6.95289 1.4 14.9564 -103.767 -76.2402
1056 27.4972 6.95289 1.4 15.1821 -250 0
1057 27.9972 6.95289 1.4 15.4207 -250 0
1058 28.4972 6.95289 1.4 15.6717 -250 0
1059 28.9972 6.95289 1.4 15.9344 -250 0
1060 29.4972 6.95289 1.4 16.2082 -250 0
1061 29.9972 6.95289 1.4 16.4927 -250 0
1062 30.4972 6.95289 1.4 16.7872 -250 0
1063 -28.0028 7.45289 1.4 50.1472 -250 0
1064 -27.5028 7.45289 1.4 49.6643 -250 0
1065 -27.0028 7.45289 1.4 49.1817 -250 0
1066 -26.5028 7.45289 1.4 48.6995 -250 0
1067 -26.0028 7.45289 1.4 48.2177 -250 0
1068 -25.5028 7.45289 1.4 47.7362 -250 0
1069 -25.0028 7.45289 1.4 47.2552 -250 0
1070 -24.5028 7.45289 1.4 46.7745 -250 0
1071 -24.0028 7.45289 1.4 46.2942 -250 0
1072 -23.5028 7.45289 1.4 45.8144 -250 0
1073 -23.0028 7.45289 1.4 45.335 -250 0
1074 -22.5028 7.45289 1.4 44.856 -250 0
1075 -22.0028 7.45289 1.4 44.3775 -250 0
1076 -21.5028 7.45289 1.4 43.8995 -250 0
1077 -21.0028 7.45289 1.4 43.422 -250 0
1078 -20.5028 7.45289 1.4 42.945 -181.805 -92.0912
1079 -20.0028 7.45289 1.4 42.4685 -148.601 -82.0431
1080 -19.5028 7.45289 1.4 41.9926 -148.363 -77.5298
1081 -19.0028 7.45289 1.4 41.5172 -148.13 -73.7447
1082 -18.5028 7.45289 1.4 41.0424 -178.694 -95.7034
1083 -18.0028 7.45289 1.4 40.5683 -250 0
1084 -17.5028 7.45289 1.4 40.0947 -250 0
1085 -17.0028 7.45289 1.4 39.6218 -250 0
1086 -16.5028 7.45289 1.4 39.1496 -250 0
1087 -16.0028 7.45289 1.4 38.6781 -250 0
1088 -15.5028 7.45289 1.4 38.2073 -250 0
1089 -15.0028 7.45289 1.4 37.7372 -250 0
1090 -14.5028 7.45289 1.4 37.268 -250 0
1091 -14.0028 7.45289 1.4 36.7995 -250 0
1092 -13.5028 7.45289 1.4 36.3319 -91.651 -112.339
1093 -13.0028 7.45289 1.4 35.8651 -250 0
1094 -12.5028 7.45289 1.4 35.3993 -250 0
1095 -12.0028 7.45289 1.4 34.9344 -250 0
1096 -11.5028 7.45289 1.4 34.4705 -117.294 -128.169
1097 -11.0028 7.45289 1.4 34.0076 -250 0
1098 -10.5028 7.45289 1.4 33.5458 -250 0
1099 -10.0028 7.45289 1.4 33.0851 -250 0
1100 -9.50282 7.45289 1.4 32.6255 -250 0
1101 -9.00282 7.45289 1.4 32.1672 -100.591 71.5948
1102 -8.50282 7.45289 1.4 31.7101 -88.5114 142.418
1103 -8.00282 7.45289 1.4 31.2543 -110.401 120.853
1104 -7.50282 7.45289 1.4 30.7999 -250 0
1105 -7.00282 7.45289 1.4 30.347 -250 0
1106 -6.50282 7.45289 1.4 29.8955 -250 0
1107 -6.00282 7.45289 1.4 29.4456 -250 0
1108 -5.50282 7.45289 1.4 28.9973 -250 0
1109 -5.00282 7.45289 1.4 28.5508 -250 0
1110 -4.50282 7.45289 1.4 28.106 -250 0
1111 -4.00282 7.45289 1.4 27.6632 -100.878 -73.2569
1112 -3.50282 7.45289 1.4 27.2223 -104.033 86.5771
1113 -3.00282 7.45289 1.4 26.7835 -117.096 -62.2472
1114 -2.50282 7.45289 1.4 26.3469 -87.3325 -82.6783
1115 -2.00282 7.45289 1.4 25.9126 -99.7395 -178.677
1116 -1.50282 7.45289 1.4 25.4807 -109.961 -135.683
1117 -1.00282 7.45289 1.4 25.0513 -250 0
1118 -0.50282 7.45289 1.4 24.6246 -250 0
1119 -0.00282 7.45289 1.4 24.2006 -250 0
1120 0.49718 7.45289 1.4 23.7797 -93.2738 -41.1999
1121 0.99718 7.45289 1.4 23.3618 -87.5834 -72.8074
1122 1.49718 7.45289 1.4 22.9473 -79.5048 -8.06738
1123 1.99718 7.45289 1.4 22.5362 -90.068 19.4276
1124 2.49718 7.45289 1.4 22.1288 -95.8608 -80.2241
1125 2.99718 7.45289 1.4 21.7252 -106.285 -143.666
1126 3.49718 7.45289 1.4 21.3257 -250 0
1127 3.99718 7.45289 1.4 20.9306 -78.2698 -33.4442
1128 4.49718 7.45289 1.4 20.54 -118.081 -161.062
1129 4.99718 7.45289 1.4 20.1543 -250 0
1130 5.49718 7.45289 1.4 19.7736 -250 0
1131 5.99718 7.45289 1.4 19.3984 -84.4901 170.659
1132 6.49718 7.45289 1.4 19.029 -62.7251 174.946
1133 6.99718 7.45289 1.4 18.6656 -65.8792 170.086
1134 7.49718 7.45289 1.4 18.3087 -64.0056 142.762
1135 7.99718 7.45289 1.4 17.9585 -64.4332 98.6974
1136 8.49718 7.45289 1.4 17.6157 -250 0
1137 8.99718 7.45289 1.4 17.2804 -250 0
1138 9.49718 7.45289 1.4 16.9534 -250 0
1139 9.99718 7.45289 1.4 16.6349 -69.6311 54.9761
1140 10.4972 7.45289 1.4 16.3255 -250 0
1141 10.9972 7.45289 1.4 16.0257 -250 0
1142 11.4972 7.45289 1.4 15.7361 -64.9381 -139.684
1143 11.9972 7.45289 1.4 15.4573 -63.7423 -158.236
1144 12.4972 7.45289 1.4 15.1898 -69.4666 -116.984
1145 12.9972 7.45289 1.4 14.9343 -70.6312 -86.9626
1146 13.4972 7.45289 1.4 14.6913 -73.0546 -81.0795
1147 13.9972 7.45289 1.4 14.4616 -250 0
1148 14.4972 7.45289 1.4 14.2457 -250 0
1149 14.9972 7.45289 1.4 14.0443 -250 0
1150 15.4972 7.45289 1.4 13.858 -250 0
1151 15.9972 7.45289 1.4 13.6875 -250 0
1152 16.4972 7.45289 1.4 13.5333 -65.3639 -118.452
1153 16.9972 7.45289 1.4 13.396 -84.631 168.589
1154 17.4972 7.45289 1.4 13.2761 -100.821 80.155
1155 17.9972 7.45289 1.4 13.1741 -67.1777 -55.1353
1156 18.4972 7.45289 1.4 13.0904 -69.53 -43.2255
1157 18.9972 7.45289 1.4 13.0254 -71.479 -18.6539
1158 19.4972 7.45289 1.4 12.9794 -76.0932 34.8726
1159 19.9972 7.45289 1.4 12.9525 -79.3501 -45.4371
1160 20.4972 7.45289 1.4 12.9448 -80.54 139.736
1161 20.9972 7.45289 1.4 12.9565 -75.9553 -32.5416
1162 21.4972 7.45289 1.4 12.9874 -63.3019 -138.287
1163 21.9972 7.45289 1.4 13.0375 -68.8598 -101.632
1164 22.4972 7.45289 1.4 13.1064 -55.0819 158.859
1165 22.9972 7.45289 1.4 13.194 -57.8769 65.855
1166 23.4972 7.45289 1.4 13.2997 -64.0989 -40.2251
1167 23.9972 7.45289 1.4 13.4233 -63.5534 -23.1148
1168 24.4972 7.45289 1.4 13.5642 -63.738 97.7876
1169 24.9972 7.45289 1.4 13.7219 -105.049 -67.0001
1170 25.4972 7.45289 1.4 13.8958 -88.1802 71.0403
1171 25.9972 7.45289 1.4 14.0853 -65.968 -105.945
1172 26.4972 7.45289 1.4 14.2898 -73.9067 -3.63001
1173 26.9972 7.45289 1.4 14.5086 -81.0783 127.154
1174 27.4972 7.45289 1.4 14.7412 -250 0
1175 27.9972 7.45289 1.4 14.9868 -250 0
1176 28.4972 7.45289 1.4 15.2449 -250 0
1177 28.9972 7.45289 1.4 15.5148 -250 0
1178 29.4972 7.45289 1.4 15.7959 -250 0
1179 29.9972 7.45289 1.4 16.0877 -250 0
1180 30.4972 7.45289 1.4 16.3895 -250 0
1181 -28.0028 7.95289 1.4 50.0204 -250 0
1182 -27.5028 7.95289 1.4 49.5363 -250 0
1183 -27.0028 7.95289 1.4 49.0525 -250 0
1184 -26.5028 7.95289 1.4 48.569 -250 0
1185 -26.0028 7.95289 1.4 48.0859 -250 0
1186 -25.5028 7.95289 1.4 47.6031 -250 0
1187 -25.0028 7.95289 1.4 47.1207 -250 0
1188 -24.5028 7.95289 1.4 46.6386 -250 0
1189 -24.0028 7.95289 1.4 46.1569 -250 0
1190 -23.5028 7.95289 1.4 45.6756 -250 0
1191 -23.0028 7.95289 1.4 45.1948 -250 0
1192 -22.5028 7.95289 1.4 44.7143 -250 0
1193 -22.0028 7.95289 1.4 44.2343 -250 0
1194 -21.5028 7.95289 1.4 43.7547 -250 0
1195 -21.0028 7.95289 1.4 43.2756 -250 0
1196 -20.5028 7.95289 1.4 42.7969 -250 0
1197 -20.0028 7.95289 1.4 42.3188 -250 0
1198 -19.5028 7.95289 1.4 41.8412 -250 0
1199 -19.0028 7.95289 1.4 41.3641 -250 0
1200 -18.5028 7.95289 1.4 40.8875 -159.854 101.737
1201 -18.0028 7.95289 1.4 40.4115 -149.457 -155.378
1202 -17.5028 7.95289 1.4 39.9361 -150.032 -138.714
1203 -17.0028 7.95289 1.4 39.4613 -250 0
1204 -16.5028 7.95289 1.4 38.9871 -250 0
1205 -16.0028 7.95289 1.4 38.5136 -250 0
1206 -15.5028 7.95289 1.4 38.0408 -250 0
1207 -15.0028 7.95289 1.4 37.5687 -250 0
1208 -14.5028 7.95289 1.4 37.0973 -250 0
1209 -14.0028 7.95289 1.4 36.6266 -250 0
1210 -13.5028 7.95289 1.4 36.1568 -118.363 -143.018
1211 -13.0028 7.95289 1.4 35.6877 -92.1151 -32.2077
1212 -12.5028 7.95289 1.4 35.2195 -109.677 -48.1225
1213 -12.0028 7.95289 1.4 34.7522 -250 0
1214 -11.5028 7.95289 1.4 34.2859 -250 0
1215 -11.0028 7.95289 1.4 33.8205 -250 0
1216 -10.5028 7.95289 1.4 33.356 -250 0
1217 -10.0028 7.95289 1.4 32.8927 -250 0
1218 -9.50282 7.95289 1.4 32.4304 -250 0
1219 -9.00282 7.95289 1.4 31.9693 -250 0
1220 -8.50282 7.95289 1.4 31.5093 -100.097 82.6134
1221 -8.00282 7.95289 1.4 31.0506 -84.7676 59.436
1222 -7.50282 7.95289 1.4 30.5931 -101.192 -96.5543
1223 -7.00282 7.95289 1.4 30.1371 -250 0
1224 -6.50282 7.95289 1.4 29.6824 -250 0
1225 -6.00282 7.95289 1.4 29.2292 -250 0
1226 -5.50282 7.95289 1.4 28.7776 -250 0
1227 -5.00282 7.95289 1.4 28.3276 -250 0
1228 -4.50282 7.95289 1.4 27.8793 -250 0
1229 -4.00282 7.95289 1.4 27.4328 -250 0
1230 -3.50282 7.95289 1.4 26.9881 -100.083 -91.503
1231 -3.00282 7.95289 1.4 26.5455 -88.5464 -172.065
1232 -2.50282 7.95289 1.4 26.1049 -100.897 101.244
1233 -2.00282 7.95289 1.4 25.6664 -250 0
1234 -1.50282 7.95289 1.4 25.2303 -250 0
1235 -1.00282 7.95289 1.4 24.7966 -250 0
1236 -0.50282 7.95289 1.4 24.3654 -250 0
1237 -0.00282 7.95289 1.4 23.9369 -250 0
1238 0.49718 7.95289 1.4 23.5112 -250 0
1239 0.99718 7.95289 1.4 23.0885 -250 0
1240 1.49718 7.95289 1.4 22.669 -90.1255 -174.536
1241 1.99718 7.95289 1.4 22.2528 -78.9683 -83.1879
1242 2.49718 7.95289 1.4 21.8401 -95.0744 -57.0709
1243 2.99718 7.95289 1.4 21.4311 -104.38 98.5934
1244 3.49718 7.95289 1.4 21.026 -108.116 -48.065
1245 3.99718 7.95289 1.4 20.6251 -116.498 169.113
1246 4.49718 7.95289 1.4 20.2286 -117.676 -123.583
1247 4.99718 7.95289 1.4 19.8368 -250 0
1248 5.49718 7.95289 1.4 19.45 -250 0
1249 5.99718 7.95289 1.4 19.0684 -250 0
1250 6.49718 7.95289 1.4 18.6924 -87.3852 69.6451
1251 6.99718 7.95289 1.4 18.3224 -64.2848 96.0918
1252 7.49718 7.95289 1.4 17.9586 -65.6359 111.298
1253 7.99718 7.95289 1.4 17.6015 -64.7005 72.4982
1254 8.49718 7.95289 1.4 17.2516 -64.4319 28.3524
1255 8.99718 7.95289 1.4 16.9091 -250 0
1256 9.49718 7.95289 1.4 16.5747 -250 0
1257 9.99718 7.95289 1.4 16.2488 -250 0
1258 10.4972 7.95289 1.4 15.9319 -250 0
1259 10.9972 7.95289 1.4 15.6246 -250 0
1260 11.4972 7.95289 1.4 15.3275 -67.7546 137.095
1261 11.9972 7.95289 1.4 15.0411 -64.5169 66.9546
1262 12.4972 7.95289 1.4 14.766 -71.6172 159.419
1263 12.9972 7.95289 1.4 14.503 -74.1805 -159.265
1264 13.4972 7.95289 1.4 14.2527 -250 0
1265 13.9972 7.95289 1.4 14.0158 -250 0
1266 14.4972 7.95289 1.4 13.7929 -250 0
1267 14.9972 7.95289 1.4 13.5848 -250 0
1268 15.4972 7.95289 1.4 13.3922 -250 0
1269 15.9972 7.95289 1.4 13.2156 -250 0
1270 16.4972 7.95289 1.4 13.0558 -82.0983 119.209
1271 16.9972 7.95289 1.4 12.9135 -78.544 157.293
1272 17.4972 7.95289 1.4 12.789 -250 0
1273 17.9972 7.95289 1.4 12.6831 -70.5383 -141.082
1274 18.4972 7.95289 1.4 12.5962 -68.0159 99.4986
1275 18.9972 7.95289 1.4 12.5286 -70.461 -111.682
1276 19.4972 7.95289 1.4 12.4808 -75.6685 -139.483
1277 19.9972 7.95289 1.4 12.4528 -73.694 61.5713
1278 20.4972 7.95289 1.4 12.4448 -79.3499 -136.239
1279 20.9972 7.95289 1.4 12.457 -62.8538 42.5907
1280 21.4972 7.95289 1.4 12.4891 -59.8858 84.414
1281 21.9972 7.95289 1.4 12.5412 -54.6138 31.5114
1282 22.4972 7.95289 1.4 12.6128 -57.8114 -53.3493
1283 22.9972 7.95289 1.4 12.7038 -63.3794 -131.092
1284 23.4972 7.95289 1.4 12.8136 -65.8558 -97.3435
1285 23.9972 7.95289 1.4 12.9418 -66.4547 33.5763
1286 24.4972 7.95289 1.4 13.0879 -250 0
1287 24.9972 7.95289 1.4 13.2512 -105.95 -3.69608
1288 25.4972 7.95289 1.4 13.4312 -126.05 31.6872
1289 25.9972 7.95289 1.4 13.6272 -81.3196 -173.097
1290 26.4972 7.95289 1.4 13.8385 -65.1066 -10.5918
1291 26.9972 7.95289 1.4 14.0643 -68.801 123.181
1292 27.4972 7.95289 1.4 14.3041 -250 0
1293 27.9972 7.95289 1.4 14.5571 -250 0
1294 28.4972 7.95289 1.4 14.8227 -250 0
1295 28.9972 7.95289 1.4 15.1002 -250 0
1296 29.4972 7.95289 1.4 15.3889 -250 0
1297 29.9972 7.95289 1.4 15.6882 -250 0
1298 30.4972 7.95289 1.4 15.9976 -250 0
1299 -28.0028 8.45289 1.4 49.8984 -250 0
1300 -27.5028 8.45289 1.4 49.4131 -250 0
1301 -27.0028 8.45289 1.4 48.928 -250 0
1302 -26.5028 8.45289 1.4 48.4433 -250 0
1303 -26.0028 8.45289 1.4 47.9589 -250 0
1304 -25.5028 8.45289 1.4 47.4748 -250 0
1305 -25.0028 8.45289 1.4 46.9911 -250 0
1306 -24.5028 8.45289 1.4 46.5077 -250 0
1307 -24.0028 8.45289 1.4 46.0246 -250 0
1308 -23.5028 8.45289 1.4 45.5419 -250 0
1309 -23.0028 8.45289 1.4 45.0596 -250 0
1310 -22.5028 8.45289 1.4 44.5777 -250 0
1311 -22.0028 8.45289 1.4 44.0962 -250 0
1312 -21.5028 8.45289 1.4 43.6151 -250 0
1313 -21.0028 8.45289 1.4 43.1345 -250 0
1314 -20.5028 8.45289 1.4 42.6542 -159.473 7.64754
1315 -20.0028 8.45289 1.4 42.1745 -250 0
1316 -19.5028 8.45289 1.4 41.6952 -250 0
1317 -19.0028 8.45289 1.4 41.2164 -250 0
1318 -18.5028 8.45289 1.4 40.7381 -250 0
1319 -18.0028 8.45289 1.4 40.2603 -250 0
1320 -17.5028 8.45289 1.4 39.7831 -250 0
1321 -17.0028 8.45289 1.4 39.3065 -250 0
1322 -16.5028 8.45289 1.4 38.8304 -250 0
1323 -16.0028 8.45289 1.4 38.355 -250 0
1324 -15.5028 8.45289 1.4 37.8802 -250 0
1325 -15.0028 8.45289 1.4 37.406 -250 0
1326 -14.5028 8.45289 1.4 36.9325 -250 0
1327 -14.0028 8.45289 1.4 36.4598 -250 0
1328 -13.5028 8.45289 1.4 35.9877 -250 0
1329 -13.0028 8.45289 1.4 35.5165 -250 0
1330 -12.5028 8.45289 1.4 35.046 -250 0
1331 -12.0028 8.45289 1.4 34.5764 -99.7032 18.5223
1332 -11.5028 8.45289 1.4 34.1076 -108.38 19.0245
1333 -11.0028 8.45289 1.4 33.6397 -250 0
1334 -10.5028 8.45289 1.4 33.1727 -250 0
1335 -10.0028 8.45289 1.4 32.7068 -250 0
1336 -9.50282 8.45289 1.4 32.2418 -250 0
1337 -9.00282 8.45289 1.4 31.778 -110.879 -6.64131
1338 -8.50282 8.45289 1.4 31.3152 -111.115 166.77
1339 -8.00282 8.45289 1.4 30.8536 -100.112 0.888932
1340 -7.50282 8.45289 1.4 30.3932 -85.9503 -33.1635
1341 -7.00282 8.45289 1.4 29.9341 -99.5985 -167.188
1342 -6.50282 8.45289 1.4 29.4763 -119.014 86.3862
1343 -6.00282 8.45289 1.4 29.0199 -250 0
1344 -5.50282 8.45289 1.4 28.5649 -250 0
1345 -5.00282 8.45289 1.4 28.1115 -250 0
1346 -4.50282 8.45289 1.4 27.6597 -250 0
1347 -4.00282 8.45289 1.4 27.2096 -250 0
1348 -3.50282 8.45289 1.4 26.7613 -86.5467 124.568
1349 -3.00282 8.45289 1.4 26.3148 -109.649 74.4498
1350 -2.50282 8.45289 1.4 25.8702 -97.0762 -108.008
1351 -2.00282 8.45289 1.4 25.4278 -109.335 117.447
1352 -1.50282 8.45289 1.4 24.9875 -250 0
1353 -1.00282 8.45289 1.4 24.5495 -250 0
1354 -0.50282 8.45289 1.4 24.1139 -250 0
1355 -0.00282 8.45289 1.4 23.6808 -250 0
1356 0.49718 8.45289 1.4 23.2505 -250 0
1357 0.99718 8.45289 1.4 22.8229 -99.5046 66.4323
1358 1.49718 8.45289 1.4 22.3984 -95.7567 69.627
1359 1.99718 8.45289 1.4 21.9771 -85.9962 142.721
1360 2.49718 8.45289 1.4 21.5591 -79.7122 -164.257
1361 2.99718 8.45289 1.4 21.1446 -91.8376 -112.62
1362 3.49718 8.45289 1.4 20.734 -99.7008 -121.995
1363 3.99718 8.45289 1.4 20.3273 -115.937 -158.821
1364 4.49718 8.45289 1.4 19.9249 -117.242 -86.1066
1365 4.99718 8.45289 1.4 19.527 -250 0
1366 5.49718 8.45289 1.4 19.1339 -250 0
1367 5.99718 8.45289 1.4 18.7459 -87.1117 2.83792
1368 6.49718 8.45289 1.4 18.3633 -87.4541 174.379
1369 6.99718 8.45289 1.4 17.9865 -95.3894 -28.0079
1370 7.49718 8.45289 1.4 17.6158 -63.4265 37.8425
1371 7.99718 8.45289 1.4 17.2517 -65.7951 44.3282
1372 8.49718 8.45289 1.4 16.8944 -64.9934 6.15896
1373 8.99718 8.45289 1.4 16.5446 -64.3723 -38.5228
1374 9.49718 8.45289 1.4 16.2027 -250 0
1375 9.99718 8.45289 1.4 15.8691 -250 0
1376 10.4972 8.45289 1.4 15.5445 -250 0
1377 10.9972 8.45289 1.4 15.2294 -67.8211 71.6295
1378 11.4972 8.45289 1.4 14.9244 -72.9632 103.629
1379 11.9972 8.45289 1.4 14.6301 -70.0851 -74.5265
1380 12.4972 8.45289 1.4 14.3472 -70.7342 -92.3592
1381 12.9972 8.45289 1.4 14.0763 -76.6268 6.88983
1382 13.4972 8.45289 1.4 13.8183 -250 0
1383 13.9972 8.45289 1.4 13.5738 -250 0
1384 14.4972 8.45289 1.4 13.3436 -250 0
1385 14.9972 8.45289 1.4 13.1283 -250 0
1386 15.4972 8.45289 1.4 12.9289 -250 0
1387 15.9972 8.45289 1.4 12.7459 -250 0
1388 16.4972 8.45289 1.4 12.5802 -250 0
1389 16.9972 8.45289 1.4 12.4323 -70.3491 -109.096
1390 17.4972 8.45289 1.4 12.303 -250 0
1391 17.9972 8.45289 1.4 12.1929 -61.4808 -51.0178
1392 18.4972 8.45289 1.4 12.1025 -63.2838 68.5225
1393 18.9972 8.45289 1.4 12.0321 -71.2339 157.428
1394 19.4972 8.45289 1.4 11.9823 -77.0603 -27.4492
1395 19.9972 8.45289 1.4 11.9531 -93.8911 -115.057
1396 20.4972 8.45289 1.4 11.9448 -89.9339 -141.499
1397 20.9972 8.45289 1.4 11.9575 -60.4257 -75.0176
1398 21.4972 8.45289 1.4 11.991 -59.1693 -77.1967
1399 21.9972 8.45289 1.4 12.0452 -54.2917 -151.329
1400 22.4972 8.45289 1.4 12.1198 -58.5724 125.14
1401 22.9972 8.45289 1.4 12.2144 -71.0344 177.498
1402 23.4972 8.45289 1.4 12.3286 -66.3334 -37.8795
1403 23.9972 8.45289 1.4 12.4618 -250 0
1404 24.4972 8.45289 1.4 12.6134 -250 0
1405 24.9972 8.45289 1.4 12.7828 -84.6888 -43.5513
1406 25.4972 8.45289 1.4 12.9693 -75.5177 55.1218
1407 25.9972 8.45289 1.4 13.1722 -81.1275 -131.914
1408 26.4972 8.45289 1.4 13.3906 -69.0667 -120.217
1409 26.9972 8.45289 1.4 13.6239 -69.8942 49.6441
1410 27.4972 8.45289 1.4 13.8713 -250 0
1411 27.9972 8.45289 1.4 14.1321 -250 0
1412 28.4972 8.45289 1.4 14.4055 -250 0
1413 28.9972 8.45289 1.4 14.6908 -250 0
1414 29.4972 8.45289 1.4 14.9874 -250 0
1415 29.9972 8.45289 1.4 15.2946 -250 0
1416 30.4972 8.45289 1.4 15.6118 -250 0
1417 -28.0028 8.95289 1.4 49.7811 -250 0
1418 -27.5028 8.95289 1.4 49.2946 -250 0
1419 -27.0028 8.95289 1.4 48.8084 -250 0
1420 -26.5028 8.95289 1.4 48.3225 -250 0
1421 -26.0028 8.95289 1.4 47.8368 -250 0
1422 -25.5028 8.95289 1.4 47.3515 -250 0
1423 -25.0028 8.95289 1.4 46.8665 -250 0
1424 -24.5028 8.95289 1.4 46.3818 -250 0
1425 -24.0028 8.95289 1.4 45.8974 -250 0
1426 -23.5028 8.95289 1.4 45.4134 -250 0
1427 -23.0028 8.95289 1.4 44.9297 -250 0
1428 -22.5028 8.95289 1.4 44.4464 -250 0
1429 -22.0028 8.95289 1.4 43.9634 -250 0
1430 -21.5028 8.95289 1.4 43.4808 -250 0
1431 -21.0028 8.95289 1.4 42.9987 -250 0
1432 -20.5028 8.95289 1.4 42.5169 -250 0
1433 -20.0028 8.95289 1.4 42.0356 -250 0
1434 -19.5028 8.95289 1.4 41.5547 -250 0
1435 -19.0028 8.95289 1.4 41.0743 -250 0
1436 -18.5028 8.95289 1.4 40.5943 -250 0
1437 -18.0028 8.95289 1.4 40.1148 -250 0
1438 -17.5028 8.95289 1.4 39.6359 -250 0
1439 -17.0028 8.95289 1.4 39.1574 -250 0
1440 -16.5028 8.95289 1.4 38.6796 -250 0
1441 -16.0028 8.95289 1.4 38.2022 -250 0
1442 -15.5028 8.95289 1.4 37.7255 -250 0
1443 -15.0028 8.95289 1.4 37.2494 -250 0
1444 -14.5028 8.95289 1.4 36.7739 -250 0
1445 -14.0028 8.95289 1.4 36.299 -250 0
1446 -13.5028 8.95289 1.4 35.8249 -250 0
1447 -13.0028 8.95289 1.4 35.3514 -250 0
1448 -12.5028 8.95289 1.4 34.8787 -250 0
1449 -12.0028 8.95289 1.4 34.4068 -250 0
1450 -11.5028 8.95289 1.4 33.9357 -250 0
1451 -11.0028 8.95289 1.4 33.4654 -98.6595 67.9703
1452 -10.5028 8.95289 1.4 32.996 -97.483 71.1011
1453 -10.0028 8.95289 1.4 32.5275 -117.625 173.608
1454 -9.50282 8.95289 1.4 32.06 -111.086 121.097
1455 -9.00282 8.95289 1.4 31.5934 -111.339 -67.5856
1456 -8.50282 8.95289 1.4 31.1279 -250 0
1457 -8.00282 8.95289 1.4 30.6635 -250 0
1458 -7.50282 8.95289 1.4 30.2002 -250 0
1459 -7.00282 8.95289 1.4 29.7381 -86.7413 -79.147
1460 -6.50282 8.95289 1.4 29.2772 -107.808 -130.407
1461 -6.00282 8.95289 1.4 28.8177 -98.7335 -93.793
1462 -5.50282 8.95289 1.4 28.3595 -250 0
1463 -5.00282 8.95289 1.4 27.9027 -250 0
1464 -4.50282 8.95289 1.4 27.4475 -250 0
1465 -4.00282 8.95289 1.4 26.9938 -250 0
1466 -3.50282 8.95289 1.4 26.5419 -115.36 95.0699
1467 -3.00282 8.95289 1.4 26.0916 -250 0
1468 -2.50282 8.95289 1.4 25.6432 -250 0
1469 -2.00282 8.95289 1.4 25.1968 -100.323 126.337
1470 -1.50282 8.95289 1.4 24.7524 -99.513 80.9177
1471 -1.00282 8.95289 1.4 24.3101 -108.008 -168.884
1472 -0.50282 8.95289 1.4 23.8702 -250 0
1473 -0.00282 8.95289 1.4 23.4326 -250 0
1474 0.49718 8.95289 1.4 22.9976 -98.9775 -6.5003
1475 0.99718 8.95289 1.4 22.5653 -94.7441 -28.4951
1476 1.49718 8.95289 1.4 22.1358 -250 0
1477 1.99718 8.95289 1.4 21.7094 -104.382 139.509
1478 2.49718 8.95289 1.4 21.2861 -85.9584 61.3776
1479 2.99718 8.95289 1.4 20.8663 -76.2208 121.896
1480 3.49718 8.95289 1.4 20.45 -107.925 -118.649
1481 3.99718 8.95289 1.4 20.0376 -115.316 -127.702
1482 4.49718 8.95289 1.4 19.6293 -116.776 -48.6346
1483 4.99718 8.95289 1.4 19.2253 -250 0
1484 5.49718 8.95289 1.4 18.8259 -86.9583 -130.099
1485 5.99718 8.95289 1.4 18.4314 -250 0
1486 6.49718 8.95289 1.4 18.0421 -250 0
1487 6.99718 8.95289 1.4 17.6584 -250 0
1488 7.49718 8.95289 1.4 17.2807 -83.3312 8.07459
1489 7.99718 8.95289 1.4 16.9093 -63.4924 -36.5111
1490 8.49718 8.95289 1.4 16.5447 -64.4361 -24.8894
1491 8.99718 8.95289 1.4 16.1873 -63.5184 -58.2536
1492 9.49718 8.95289 1.4 15.8377 -62.9848 -106.67
1493 9.99718 8.95289 1.4 15.4963 -250 0
1494 10.4972 8.95289 1.4 15.1637 -66.0027 4.30859
1495 10.9972 8.95289 1.4 14.8405 -71.3094 46.8959
1496 11.4972 8.95289 1.4 14.5273 -71.4389 91.9974
1497 11.9972 8.95289 1.4 14.2248 -74.3573 90.7485
1498 12.4972 8.95289 1.4 13.9336 -62.2363 95.2614
1499 12.9972 8.95289 1.4 13.6546 -71.2385 121.99
1500 13.4972 8.95289 1.4 13.3885 -250 0
1501 13.9972 8.95289 1.4 13.136 -250 0
1502 14.4972 8.95289 1.4 12.8979 -250 0
1503 14.9972 8.95289 1.4 12.6751 -250 0
1504 15.4972 8.95289 1.4 12.4684 -250 0
1505 15.9972 8.95289 1.4 12.2786 -250 0
1506 16.4972 8.95289 1.4 12.1064 -78.3089 87.9557
1507 16.9972 8.95289 1.4 11.9527 -250 0
1508 17.4972 8.95289 1.4 11.8182 -74.1204 -6.20314
1509 17.9972 8.95289 1.4 11.7035 -66.8798 -69.8823
1510 18.4972 8.95289 1.4 11.6093 -62.3037 -94.9282
1511 18.9972 8.95289 1.4 11.5359 -68.5043 -65.6733
1512 19.4972 8.95289 1.4 11.4839 -72.8027 35.9786
1513 19.9972 8.95289 1.4 11.4535 -78.822 -104.414
1514 20.4972 8.95289 1.4 11.4448 -61.338 96.1104
1515 20.9972 8.95289 1.4 11.4581 -58.712 127.927
1516 21.4972 8.95289 1.4 11.493 -53.461 77.6095
1517 21.9972 8.95289 1.4 11.5495 -57.8568 -10.5843
1518 22.4972 8.95289 1.4 11.6273 -62.992 -118.001
1519 22.9972 8.95289 1.4 11.7259 -66.4145 -126.935
1520 23.4972 8.95289 1.4 11.8448 -74.9406 136.104
1521 23.9972 8.95289 1.4 11.9834 -250 0
1522 24.4972 8.95289 1.4 12.141 -61.2995 -131.963
1523 24.9972 8.95289 1.4 12.3169 -79.5514 -103.261
1524 25.4972 8.95289 1.4 12.5103 -99.0731 156.734
1525 25.9972 8.95289 1.4 12.7205 -70.8939 -155.224
1526 26.4972 8.95289 1.4 12.9466 -103.13 135.225
1527 26.9972 8.95289 1.4 13.1877 -73.7491 -25.7491
1528 27.4972 8.95289 1.4 13.4431 -250 0
1529 27.9972 8.95289 1.4 13.7121 -250 0
1530 28.4972 8.95289 1.4 13.9937 -250 0
1531 28.9972 8.95289 1.4 14.2872 -250 0
1532 29.4972 8.95289 1.4 14.592 -250 0
1533 29.9972 8.95289 1.4 14.9074 -250 0
1534 30.4972 8.95289 1.4 15.2326 -250 0
1535 -28.0028 9.45289 1.4 49.6685 -250 0
1536 -27.5028 9.45289 1.4 49.1809 -250 0
1537 -27.0028 9.45289 1.4 48.6936 -250 0
1538 -26.5028 9.45289 1.4 48.2065 -250 0
1539 -26.0028 9.45289 1.4 47.7197 -250 0
1540 -25.5028 9.45289 1.4 47.2331 -250 0
1541 -25.0028 9.45289 1.4 46.7469 -250 0
1542 -24.5028 9.45289 1.4 46.2609 -250 0
1543 -24.0028 9.45289 1.4 45.7753 -250 0
1544 -23.5028 9.45289 1.4 45.29 -250 0
1545 -23.0028 9.45289 1.4 44.8049 -250 0
1546 -22.5028 9.45289 1.4 44.3202 -250 0
1547 -22.0028 9.45289 1.4 43.8359 -250 0
1548 -21.5028 9.45289 1.4 43.3519 -250 0
1549 -21.0028 9.45289 1.4 42.8683 -250 0
1550 -20.5028 9.45289 1.4 42.3851 -250 0
1551 -20.0028 9.45289 1.4 41.9022 -250 0
1552 -19.5028 9.45289 1.4 41.4198 -250 0
1553 -19.0028 9.45289 1.4 40.9378 -250 0
1554 -18.5028 9.45289 1.4 40.4562 -250 0
1555 -18.0028 9.45289 1.4 39.9751 -250 0
1556 -17.5028 9.45289 1.4 39.4944 -250 0
1557 -17.0028 9.45289 1.4 39.0142 -250 0
1558 -16.5028 9.45289 1.4 38.5346 -250 0
1559 -16.0028 9.45289 1.4 38.0554 -250 0
1560 -15.5028 9.45289 1.4 37.5768 -250 0
1561 -15.0028 9.45289 1.4 37.0988 -250 0
1562 -14.5028 9.45289 1.4 36.6213 -250 0
1563 -14.0028 9.45289 1.4 36.1445 -250 0
1564 -13.5028 9.45289 1.4 35.6683 -250 0
1565 -13.0028 9.45289 1.4 35.1928 -250 0
1566 -12.5028 9.45289 1.4 34.7179 -250 0
1567 -12.0028 9.45289 1.4 34.2438 -250 0
1568 -11.5028 9.45289 1.4 33.7704 -250 0
1569 -11.0028 9.45289 1.4 33.2977 -250 0
1570 -10.5028 9.45289 1.4 32.8259 -111.065 74.7552
1571 -10.0028 9.45289 1.4 32.355 -105.115 123.812
1572 -9.50282 9.45289 1.4 31.8849 -97.7793 102.303
1573 -9.00282 9.45289 1.4 31.4157 -250 0
1574 -8.50282 9.45289 1.4 30.9476 -250 0
1575 -8.00282 9.45289 1.4 30.4804 -250 0
1576 -7.50282 9.45289 1.4 30.0143 -250 0
1577 -7.00282 9.45289 1.4 29.5493 -250 0
1578 -6.50282 9.45289 1.4 29.0854 -86.7147 -157.856
1579 -6.00282 9.45289 1.4 28.6228 -109.068 -167.887
1580 -5.50282 9.45289 1.4 28.1614 -250 0
1581 -5.00282 9.45289 1.4 27.7014 -98.5473 -31.0528
1582 -4.50282 9.45289 1.4 27.2428 -250 0
1583 -4.00282 9.45289 1.4 26.7857 -250 0
1584 -3.50282 9.45289 1.4 26.3301 -250 0
1585 -3.00282 9.45289 1.4 25.8762 -250 0
1586 -2.50282 9.45289 1.4 25.424 -250 0
1587 -2.00282 9.45289 1.4 24.9736 -250 0
1588 -1.50282 9.45289 1.4 24.5252 -109.377 58.0367
1589 -1.00282 9.45289 1.4 24.0788 -108.703 150.132
1590 -0.50282 9.45289 1.4 23.6345 -104.629 52.9574
1591 -0.00282 9.45289 1.4 23.1925 -108.097 -119.126
1592 0.49718 9.45289 1.4 22.7529 -96.9348 -26.9265
1593 0.99718 9.45289 1.4 22.3158 -250 0
1594 1.49718 9.45289 1.4 21.8815 -250 0
1595 1.99718 9.45289 1.4 21.45 -250 0
1596 2.49718 9.45289 1.4 21.0215 -105.786 -86.0699
1597 2.99718 9.45289 1.4 20.5963 -109.143 36.7413
1598 3.49718 9.45289 1.4 20.1745 -76.2646 48.1776
1599 3.99718 9.45289 1.4 19.7563 -114.618 -97.7986
1600 4.49718 9.45289 1.4 19.342 -86.3173 -73.7867
1601 4.99718 9.45289 1.4 18.9319 -86.8339 93.0078
1602 5.49718 9.45289 1.4 18.5261 -250 0
1603 5.99718 9.45289 1.4 18.1251 -250 0
1604 6.49718 9.45289 1.4 17.7292 -250 0
1605 6.99718 9.45289 1.4 17.3386 -250 0
1606 7.49718 9.45289 1.4 16.9537 -93.881 175.683
1607 7.99718 9.45289 1.4 16.575 -77.5472 108.615
1608 8.49718 9.45289 1.4 16.2029 -64.354 -112.297
1609 8.99718 9.45289 1.4 15.8378 -63.774 -96.9823
1610 9.49718 9.45289 1.4 15.4802 -63.0943 -131.255
1611 9.99718 9.45289 1.4 15.1308 -62.7611 -178.617
1612 10.4972 9.45289 1.4 14.7899 -69.4748 -21.7813
1613 10.9972 9.45289 1.4 14.4584 -70.6221 19.2577
1614 11.4972 9.45289 1.4 14.1367 -75.3107 1.7186
1615 11.9972 9.45289 1.4 13.8257 -250 0
1616 12.4972 9.45289 1.4 13.526 -67.1423 19.7901
1617 12.9972 9.45289 1.4 13.2384 -67.4662 -6.36315
1618 13.4972 9.45289 1.4 12.9637 -72.5757 19.62
1619 13.9972 9.45289 1.4 12.7027 -250 0
1620 14.4972 9.45289 1.4 12.4564 -250 0
1621 14.9972 9.45289 1.4 12.2255 -250 0
1622 15.4972 9.45289 1.4 12.0111 -250 0
1623 15.9972 9.45289 1.4 11.8139 -250 0
1624 16.4972 9.45289 1.4 11.6349 -76.7686 7.32619
1625 16.9972 9.45289 1.4 11.4749 -250 0
1626 17.4972 9.45289 1.4 11.3347 -69.6198 -105.712
1627 17.9972 9.45289 1.4 11.2151 -62.8286 114.462
1628 18.4972 9.45289 1.4 11.1167 -67.1049 149.931
1629 18.9972 9.45289 1.4 11.04 -63.4055 164.117
1630 19.4972 9.45289 1.4 10.9857 -69.3399 -85.7526
1631 19.9972 9.45289 1.4 10.9539 -75.2008 -165.149
1632 20.4972 9.45289 1.4 10.9449 -60.2492 -27.3113
1633 20.9972 9.45289 1.4 10.9587 -52.6558 -40.0695
1634 21.4972 9.45289 1.4 10.9952 -53.7907 -111.851
1635 21.9972 9.45289 1.4 11.0543 -60.8028 164.626
1636 22.4972 9.45289 1.4 11.1355 -63.5246 170.221
1637 22.9972 9.45289 1.4 11.2384 -66.748 -65.3097
1638 23.4972 9.45289 1.4 11.3624 -74.0689 66.8264
1639 23.9972 9.45289 1.4 11.5068 -59.0724 140.442
1640 24.4972 9.45289 1.4 11.6709 -62.2492 -107.558
1641 24.9972 9.45289 1.4 11.8537 -80.7543 -14.8689
1642 25.4972 9.45289 1.4 12.0546 -68.4862 111.884
1643 25.9972 9.45289 1.4 12.2726 -86.7212 177.662
1644 26.4972 9.45289 1.4 12.5067 -104.389 31.489
1645 26.9972 9.45289 1.4 12.7562 -111.366 11.4343
1646 27.4972 9.45289 1.4 13.0201 -250 0
1647 27.9972 9.45289 1.4 13.2976 -250 0
1648 28.4972 9.45289 1.4 13.5878 -250 0
1649 28.9972 9.45289 1.4 13.8899 -250 0
1650 29.4972 9.45289 1.4 14.2033 -250 0
1651 29.9972 9.45289 1.4 14.5271 -250 0
1652 30.4972 9.45289 1.4 14.8606 -250 0
1653 -28.0028 9.95289 1.4 49.5607 -250 0
1654 -27.5028 9.95289 1.4 49.072 -250 0
1655 -27.0028 9.95289 1.4 48.5836 -250 0
1656 -26.5028 9.95289 1.4 48.0954 -250 0
1657 -26.0028 9.95289 1.4 47.6075 -250 0
1658 -25.5028 9.95289 1.4 47.1198 -250 0
1659 -25.0028 9.95289 1.4 46.6324 -250 0
1660 -24.5028 9.95289 1.4 46.1452 -250 0
1661 -24.0028 9.95289 1.4 45.6583 -250 0
1662 -23.5028 9.95289 1.4 45.1717 -250 0
1663 -23.0028 9.95289 1.4 44.6854 -250 0
1664 -22.5028 9.95289 1.4 44.1994 -250 0
1665 -22.0028 9.95289 1.4 43.7138 -250 0
1666 -21.5028 9.95289 1.4 43.2284 -250 0
1667 -21.0028 9.95289 1.4 42.7434 -250 0
1668 -20.5028 9.95289 1.4 42.2587 -250 0
1669 -20.0028 9.95289 1.4 41.7744 -250 0
1670 -19.5028 9.95289 1.4 41.2905 -250 0
1671 -19.0028 9.95289 1.4 40.8069 -250 0
1672 -18.5028 9.95289 1.4 40.3238 -250 0
1673 -18.0028 9.95289 1.4 39.8411 -250 0
1674 -17.5028 9.95289 1.4 39.3588 -250 0
1675 -17.0028 9.95289 1.4 38.8769 -250 0
1676 -16.5028 9.95289 1.4 38.3956 -250 0
1677 -16.0028 9.95289 1.4 37.9147 -250 0
1678 -15.5028 9.95289 1.4 37.4343 -250 0
1679 -15.0028 9.95289 1.4 36.9544 -250 0
1680 -14.5028 9.95289 1.4 36.475 -250 0
1681 -14.0028 9.95289 1.4 35.9963 -250 0
1682 -13.5028 9.95289 1.4 35.5181 -250 0
1683 -13.0028 9.95289 1.4 35.0405 -250 0
1684 -12.5028 9.95289 1.4 34.5635 -250 0
1685 -12.0028 9.95289 1.4 34.0872 -250 0
1686 -11.5028 9.95289 1.4 33.6116 -111.052 27.7811
1687 -11.0028 9.95289 1.4 33.1368 -111.269 -158.097
1688 -10.5028 9.95289 1.4 32.6626 -111.521 12.6234
1689 -10.0028 9.95289 1.4 32.1893 -250 0
1690 -9.50282 9.95289 1.4 31.7167 -250 0
1691 -9.00282 9.95289 1.4 31.2451 -106.451 175.761
1692 -8.50282 9.95289 1.4 30.7743 -97.6707 160.801
1693 -8.00282 9.95289 1.4 30.3044 -250 0
1694 -7.50282 9.95289 1.4 29.8356 -250 0
1695 -7.00282 9.95289 1.4 29.3677 -250 0
1696 -6.50282 9.95289 1.4 28.901 -250 0
1697 -6.00282 9.95289 1.4 28.4353 -86.4938 130.434
1698 -5.50282 9.95289 1.4 27.9709 -111.236 30.9554
1699 -5.00282 9.95289 1.4 27.5077 -250 0
1700 -4.50282 9.95289 1.4 27.0458 -99.5501 65.4116
1701 -4.00282 9.95289 1.4 26.5853 -98.3621 31.6589
1702 -3.50282 9.95289 1.4 26.1262 -250 0
1703 -3.00282 9.95289 1.4 25.6687 -250 0
1704 -2.50282 9.95289 1.4 25.2128 -250 0
1705 -2.00282 9.95289 1.4 24.7586 -250 0
1706 -1.50282 9.95289 1.4 24.3062 -250 0
1707 -1.00282 9.95289 1.4 23.8557 -112.243 -30.66
1708 -0.50282 9.95289 1.4 23.4072 -108.491 75.3073
1709 -0.00282 9.95289 1.4 22.9608 -99.7986 38.0421
1710 0.49718 9.95289 1.4 22.5167 -250 0
1711 0.99718 9.95289 1.4 22.0749 -250 0
1712 1.49718 9.95289 1.4 21.6357 -250 0
1713 1.99718 9.95289 1.4 21.1992 -250 0
1714 2.49718 9.95289 1.4 20.7656 -103.657 -160.177
1715 2.99718 9.95289 1.4 20.335 -107.487 6.5802
1716 3.49718 9.95289 1.4 19.9076 -250 0
1717 3.99718 9.95289 1.4 19.4837 -86.5768 151.13
1718 4.49718 9.95289 1.4 19.0635 -115.72 26.2931
1719 4.99718 9.95289 1.4 18.6473 -250 0
1720 5.49718 9.95289 1.4 18.2352 -250 0
1721 5.99718 9.95289 1.4 17.8277 -250 0
1722 6.49718 9.95289 1.4 17.4249 -250 0
1723 6.99718 9.95289 1.4 17.0274 -250 0
1724 7.49718 9.95289 1.4 16.6353 -250 0
1725 7.99718 9.95289 1.4 16.2492 -86.7059 32.1155
1726 8.49718 9.95289 1.4 15.8694 -77.5956 -29.5874
1727 8.99718 9.95289 1.4 15.4965 -64.7212 178.224
1728 9.49718 9.95289 1.4 15.1308 -63.5171 -171.623
1729 9.99718 9.95289 1.4 14.7731 -63.1421 157.549
1730 10.4972 9.95289 1.4 14.4238 -69.9025 -54.2632
1731 10.9972 9.95289 1.4 14.0837 -75.3137 -71.2065
1732 11.4972 9.95289 1.4 13.7533 -250 0
1733 11.9972 9.95289 1.4 13.4333 -250 0
1734 12.4972 9.95289 1.4 13.1247 -73.9607 -81.95
1735 12.9972 9.95289 1.4 12.8281 -67.0076 157.545
1736 13.4972 9.95289 1.4 12.5444 -68.6094 -124.292
1737 13.9972 9.95289 1.4 12.2745 -250 0
1738 14.4972 9.95289 1.4 12.0194 -250 0
1739 14.9972 9.95289 1.4 11.78 -250 0
1740 15.4972 9.95289 1.4 11.5573 -250 0
1741 15.9972 9.95289 1.4 11.3523 -250 0
1742 16.4972 9.95289 1.4 11.1658 -250 0
1743 16.9972 9.95289 1.4 10.999 -250 0
1744 17.4972 9.95289 1.4 10.8527 -250 0
1745 17.9972 9.95289 1.4 10.7277 -66.0235 22.2546
1746 18.4972 9.95289 1.4 10.6248 -73.5239 -176.477
1747 18.9972 9.95289 1.4 10.5446 -79.785 77.0723
1748 19.4972 9.95289 1.4 10.4876 -69.3548 -12.5074
1749 19.9972 9.95289 1.4 10.4543 -56.898 155.322
1750 20.4972 9.95289 1.4 10.4449 -57.3433 179.786
1751 20.9972 9.95289 1.4 10.4593 -52.8133 126.699
1752 21.4972 9.95289 1.4 10.4976 -59.8093 4.34149
1753 21.9972 9.95289 1.4 10.5595 -63.2603 121.189
1754 22.4972 9.95289 1.4 10.6445 -64.3212 -149.567
1755 22.9972 9.95289 1.4 10.7521 -76.1565 -103.723
1756 23.4972 9.95289 1.4 10.8816 -58.4904 69.3439
1757 23.9972 9.95289 1.4 11.0323 -62.5958 -175.323
1758 24.4972 9.95289 1.4 11.2033 -59.1245 -72.6762
1759 24.9972 9.95289 1.4 11.3937 -93.2118 16.8313
1760 25.4972 9.95289 1.4 11.6025 -88.0876 70.3977
1761 25.9972 9.95289 1.4 11.8288 -84.6105 -112.491
1762 26.4972 9.95289 1.4 12.0716 -100.713 166.173
1763 26.9972 9.95289 1.4 12.3299 -109.371 121.191
1764 27.4972 9.95289 1.4 12.6027 -250 0
1765 27.9972 9.95289 1.4 12.8892 -250 0
1766 28.4972 9.95289 1.4 13.1884 -250 0
1767 28.9972 9.95289 1.4 13.4995 -250 0
1768 29.4972 9.95289 1.4 13.8217 -250 0
1769 29.9972 9.95289 1.4 14.1542 -250 0
1770 30.4972 9.95289 1.4 14.4963 -250 0
1771 -28.0028 10.4529 1.4 49.4577 -250 0
1772 -27.5028 10.4529 1.4 48.9681 -250 0
1773 -27.0028 10.4529 1.4 48.4786 -250 0
1774 -26.5028 10.4529 1.4 47.9893 -250 0
1775 -26.0028 10.4529 1.4 47.5003 -250 0
1776 -25.5028 10.4529 1.4 47.0115 -250 0
1777 -25.0028 10.4529 1.4 46.5229 -250 0
1778 -24.5028 10.4529 1.4 46.0346 -250 0
1779 -24.0028 10.4529 1.4 45.5465 -250 0
1780 -23.5028 10.4529 1.4 45.0587 -250 0
1781 -23.0028 10.4529 1.4 44.5712 -250 0
1782 -22.5028 10.4529 1.4 44.084 -250 0
1783 -22.0028 10.4529 1.4 43.597 -250 0
1784 -21.5028 10.4529 1.4 43.1103 -250 0
1785 -21.0028 10.4529 1.4 42.624 -250 0
1786 -20.5028 10.4529 1.4 42.1379 -250 0
1787 -20.0028 10.4529 1.4 41.6522 -250 0
1788 -19.5028 10.4529 1.4 41.1668 -250 0
1789 -19.0028 10.4529 1.4 40.6818 -250 0
1790 -18.5028 10.4529 1.4 40.1972 -250 0
1791 -18.0028 10.4529 1.4 39.7129 -250 0
1792 -17.5028 10.4529 1.4 39.2291 -250 0
1793 -17.0028 10.4529 1.4 38.7456 -250 0
1794 -16.5028 10.4529 1.4 38.2626 -250 0
1795 -16.0028 10.4529 1.4 37.78 -250 0
1796 -15.5028 10.4529 1.4 37.2978 -250 0
1797 -15.0028 10.4529 1.4 36.8162 -250 0
1798 -14.5028 10.4529 1.4 36.335 -250 0
1799 -14.0028 10.4529 1.4 35.8544 -250 0
1800 -13.5028 10.4529 1.4 35.3743 -250 0
1801 -13.0028 10.4529 1.4 34.8947 -250 0
1802 -12.5028 10.4529 1.4 34.4157 -250 0
1803 -12.0028 10.4529 1.4 33.9374 -250 0
1804 -11.5028 10.4529 1.4 33.4596 -250 0
1805 -11.0028 10.4529 1.4 32.9826 -250 0
1806 -10.5028 10.4529 1.4 32.5062 -250 0
1807 -10.0028 10.4529 1.4 32.0305 -250 0
1808 -9.50282 10.4529 1.4 31.5556 -250 0
1809 -9.00282 10.4529 1.4 31.0815 -250 0
1810 -8.50282 10.4529 1.4 30.6082 -250 0
1811 -8.00282 10.4529 1.4 30.1358 -250 0
1812 -7.50282 10.4529 1.4 29.6642 -250 0
1813 -7.00282 10.4529 1.4 29.1936 -250 0
1814 -6.50282 10.4529 1.4 28.7241 -250 0
1815 -6.00282 10.4529 1.4 28.2555 -250 0
1816 -5.50282 10.4529 1.4 27.7881 -86.2742 58.6523
1817 -5.00282 10.4529 1.4 27.3218 -105.318 36.3955
1818 -4.50282 10.4529 1.4 26.8567 -250 0
1819 -4.00282 10.4529 1.4 26.3929 -250 0
1820 -3.50282 10.4529 1.4 25.9304 -250 0
1821 -3.00282 10.4529 1.4 25.4694 -250 0
1822 -2.50282 10.4529 1.4 25.0098 -250 0
1823 -2.00282 10.4529 1.4 24.5518 -250 0
1824 -1.50282 10.4529 1.4 24.0955 -250 0
1825 -1.00282 10.4529 1.4 23.641 -250 0
1826 -0.50282 10.4529 1.4 23.1884 -250 0
1827 -0.00282 10.4529 1.4 22.7377 -114.027 1.65087
1828 0.49718 10.4529 1.4 22.2891 -250 0
1829 0.99718 10.4529 1.4 21.8428 -250 0
1830 1.49718 10.4529 1.4 21.3988 -250 0
1831 1.99718 10.4529 1.4 20.9574 -250 0
1832 2.49718 10.4529 1.4 20.5186 -250 0
1833 2.99718 10.4529 1.4 20.0827 -105.454 -38.0162
1834 3.49718 10.4529 1.4 19.6499 -250 0
1835 3.99718 10.4529 1.4 19.2203 -112.886 -43.3425
1836 4.49718 10.4529 1.4 18.7943 -115.111 63.7452
1837 4.99718 10.4529 1.4 18.3719 -250 0
1838 5.49718 10.4529 1.4 17.9535 -250 0
1839 5.99718 10.4529 1.4 17.5394 -250 0
1840 6.49718 10.4529 1.4 17.1299 -250 0
1841 6.99718 10.4529 1.4 16.7253 -250 0
1842 7.49718 10.4529 1.4 16.326 -250 0
1843 7.99718 10.4529 1.4 15.9324 -250 0
1844 8.49718 10.4529 1.4 15.5449 -86.7282 146.495
1845 8.99718 10.4529 1.4 15.164 -75.9535 -163.418
1846 9.49718 10.4529 1.4 14.7901 -64.5751 103.669
1847 9.99718 10.4529 1.4 14.4239 -63.226 115.825
1848 10.4972 10.4529 1.4 14.066 -75.3474 -144.373
1849 10.9972 10.4529 1.4 13.717 -250 0
1850 11.4972 10.4529 1.4 13.3775 -250 0
1851 11.9972 10.4529 1.4 13.0484 -250 0
1852 12.4972 10.4529 1.4 12.7304 -250 0
1853 12.9972 10.4529 1.4 12.4244 -66.9237 73.0239
1854 13.4972 10.4529 1.4 12.1312 -66.1809 32.6044
1855 13.9972 10.4529 1.4 11.852 -250 0
1856 14.4972 10.4529 1.4 11.5876 -250 0
1857 14.9972 10.4529 1.4 11.3391 -250 0
1858 15.4972 10.4529 1.4 11.1075 -250 0
1859 15.9972 10.4529 1.4 10.894 -250 0
1860 16.4972 10.4529 1.4 10.6996 -250 0
1861 16.9972 10.4529 1.4 10.5254 -250 0
1862 17.4972 10.4529 1.4 10.3724 -250 0
1863 17.9972 10.4529 1.4 10.2415 -71.8909 149.473
1864 18.4972 10.4529 1.4 10.1336 -69.7918 139.176
1865 18.9972 10.4529 1.4 10.0495 -75.1054 116.163
1866 19.4972 10.4529 1.4 9.98978 -78.681 -33.9259
1867 19.9972 10.4529 1.4 9.9548 -60.9152 31.6564
1868 20.4972 10.4529 1.4 9.94487 -53.4872 4.85298
1869 20.9972 10.4529 1.4 9.96006 -53.6656 -77.895
1870 21.4972 10.4529 1.4 10.0003 -64.3483 -47.4403
1871 21.9972 10.4529 1.4 10.0652 -62.0087 150.664
1872 22.4972 10.4529 1.4 10.1543 -77.5545 -163.359
1873 22.9972 10.4529 1.4 10.2671 -67.1551 8.56661
1874 23.4972 10.4529 1.4 10.4026 -58.9997 109.754
1875 23.9972 10.4529 1.4 10.5602 -57.8333 -151.914
1876 24.4972 10.4529 1.4 10.7387 -64.0358 -118.838
1877 24.9972 10.4529 1.4 10.9372 -72.8597 -53.5966
1878 25.4972 10.4529 1.4 11.1546 -250 0
1879 25.9972 10.4529 1.4 11.3898 -84.6207 -80.815
1880 26.4972 10.4529 1.4 11.6417 -103.272 -30.0511
1881 26.9972 10.4529 1.4 11.9093 -104.204 -29.5477
1882 27.4972 10.4529 1.4 12.1915 -99.5078 78.815
1883 27.9972 10.4529 1.4 12.4874 -101.369 -1.22767
1884 28.4972 10.4529 1.4 12.796 -76.4837 49.3691
1885 28.9972 10.4529 1.4 13.1164 -250 0
1886 29.4972 10.4529 1.4 13.4478 -250 0
1887 29.9972 10.4529 1.4 13.7893 -250 0
1888 30.4972 10.4529 1.4 14.1403 -250 0
1889 -28.0028 10.9529 1.4 49.3596 -250 0
1890 -27.5028 10.9529 1.4 48.869 -250 0
1891 -27.0028 10.9529 1.4 48.3785 -250 0
1892 -26.5028 10.9529 1.4 47.8882 -250 0
1893 -26.0028 10.9529 1.4 47.3981 -250 0
1894 -25.5028 10.9529 1.4 46.9083 -250 0
1895 -25.0028 10.9529 1.4 46.4186 -250 0
1896 -24.5028 10.9529 1.4 45.9292 -250 0
1897 -24.0028 10.9529 1.4 45.44 -250 0
1898 -23.5028 10.9529 1.4 44.951 -250 0
1899 -23.0028 10.9529 1.4 44.4623 -250 0
1900 -22.5028 10.9529 1.4 43.9739 -250 0
1901 -22.0028 10.9529 1.4 43.4857 -250 0
1902 -21.5028 10.9529 1.4 42.9977 -250 0
1903 -21.0028 10.9529 1.4 42.5101 -250 0
1904 -20.5028 10.9529 1.4 42.0227 -250 0
1905 -20.0028 10.9529 1.4 41.5357 -250 0
1906 -19.5028 10.9529 1.4 41.0489 -250 0
1907 -19.0028 10.9529 1.4 40.5625 -250 0
1908 -18.5028 10.9529 1.4 40.0764 -250 0
1909 -18.0028 10.9529 1.4 39.5907 -250 0
1910 -17.5028 10.9529 1.4 39.1053 -250 0
1911 -17.0028 10.9529 1.4 38.6203 -250 0
1912 -16.5028 10.9529 1.4 38.1357 -250 0
1913 -16.0028 10.9529 1.4 37.6514 -250 0
1914 -15.5028 10.9529 1.4 37.1676 -250 0
1915 -15.0028 10.9529 1.4 36.6843 -250 0
1916 -14.5028 10.9529 1.4 36.2014 -250 0
1917 -14.0028 10.9529 1.4 35.7189 -250 0
1918 -13.5028 10.9529 1.4 35.237 -250 0
1919 -13.0028 10.9529 1.4 34.7555 -250 0
1920 -12.5028 10.9529 1.4 34.2746 -250 0
1921 -12.0028 10.9529 1.4 33.7942 -250 0
1922 -11.5028 10.9529 1.4 33.3145 -250 0
1923 -11.0028 10.9529 1.4 32.8353 -250 0
1924 -10.5028 10.9529 1.4 32.3567 -250 0
1925 -10.0028 10.9529 1.4 31.8788 -250 0
1926 -9.50282 10.9529 1.4 31.4016 -250 0
1927 -9.00282 10.9529 1.4 30.9251 -250 0
1928 -8.50282 10.9529 1.4 30.4494 -250 0
1929 -8.00282 10.9529 1.4 29.9745 -250 0
1930 -7.50282 10.9529 1.4 29.5004 -250 0
1931 -7.00282 10.9529 1.4 29.0271 -250 0
1932 -6.50282 10.9529 1.4 28.5548 -250 0
1933 -6.00282 10.9529 1.4 28.0834 -250 0
1934 -5.50282 10.9529 1.4 27.6131 -250 0
1935 -5.00282 10.9529 1.4 27.1438 -86.0571 -13.207
1936 -4.50282 10.9529 1.4 26.6756 -97.1171 122.271
1937 -4.00282 10.9529 1.4 26.2086 -250 0
1938 -3.50282 10.9529 1.4 25.7428 -250 0
1939 -3.00282 10.9529 1.4 25.2783 -250 0
1940 -2.50282 10.9529 1.4 24.8152 -250 0
1941 -2.00282 10.9529 1.4 24.3536 -250 0
1942 -1.50282 10.9529 1.4 23.8935 -250 0
1943 -1.00282 10.9529 1.4 23.4351 -250 0
1944 -0.50282 10.9529 1.4 22.9784 -250 0
1945 -0.00282 10.9529 1.4 22.5235 -250 0
1946 0.49718 10.9529 1.4 22.0706 -250 0
1947 0.99718 10.9529 1.4 21.6197 -250 0
1948 1.49718 10.9529 1.4 21.1711 -250 0
1949 1.99718 10.9529 1.4 20.7248 -250 0
1950 2.49718 10.9529 1.4 20.281 -250 0
1951 2.99718 10.9529 1.4 19.8399 -102.889 -101.797
1952 3.49718 10.9529 1.4 19.4017 -250 0
1953 3.99718 10.9529 1.4 18.9665 -111.763 -20.1985
1954 4.49718 10.9529 1.4 18.5345 -114.428 101.186
1955 4.99718 10.9529 1.4 18.1061 -250 0
1956 5.49718 10.9529 1.4 17.6815 -250 0
1957 5.99718 10.9529 1.4 17.2608 -250 0
1958 6.49718 10.9529 1.4 16.8445 -250 0
1959 6.99718 10.9529 1.4 16.4329 -250 0
1960 7.49718 10.9529 1.4 16.0263 -250 0
1961 7.99718 10.9529 1.4 15.6252 -250 0
1962 8.49718 10.9529 1.4 15.2299 -87.0909 133.192
1963 8.99718 10.9529 1.4 14.8408 -88.7781 127.565
1964 9.49718 10.9529 1.4 14.4587 -77.8874 120.308
1965 9.99718 10.9529 1.4 14.0839 -64.5546 30.2808
1966 10.4972 10.9529 1.4 13.7171 -250 0
1967 10.9972 10.9529 1.4 13.3589 -250 0
1968 11.4972 10.9529 1.4 13.0101 -250 0
1969 11.9972 10.9529 1.4 12.6714 -250 0
1970 12.4972 10.9529 1.4 12.3437 -250 0
1971 12.9972 10.9529 1.4 12.0279 -71.7843 2.26764
1972 13.4972 10.9529 1.4 11.7249 -71.2444 -141.066
1973 13.9972 10.9529 1.4 11.4357 -250 0
1974 14.4972 10.9529 1.4 11.1614 -250 0
1975 14.9972 10.9529 1.4 10.9032 -250 0
1976 15.4972 10.9529 1.4 10.6622 -250 0
1977 15.9972 10.9529 1.4 10.4395 -250 0
1978 16.4972 10.9529 1.4 10.2365 -250 0
1979 16.9972 10.9529 1.4 10.0543 -250 0
1980 17.4972 10.9529 1.4 9.89401 -250 0
1981 17.9972 10.9529 1.4 9.75673 -70.097 159.897
1982 18.4972 10.9529 1.4 9.64345 -79.0084 70.6773
1983 18.9972 10.9529 1.4 9.55503 -74.2595 66.9264
1984 19.4972 10.9529 1.4 9.49215 -60.0646 -107.101
1985 19.9972 10.9529 1.4 9.45533 -56.0925 -105.815
1986 20.4972 10.9529 1.4 9.44488 -52.4446 163.189
1987 20.9972 10.9529 1.4 9.46087 -63.7125 84.5589
1988 21.4972 10.9529 1.4 9.50318 -66.9765 103.389
1989 21.9972 10.9529 1.4 9.57146 -76.5144 -121.726
1990 22.4972 10.9529 1.4 9.66516 -80.398 151.124
1991 22.9972 10.9529 1.4 9.78354 -58.0181 28.7975
1992 23.4972 10.9529 1.4 9.92572 -60.4917 113.755
1993 23.9972 10.9529 1.4 10.0907 -64.7509 -153.933
1994 24.4972 10.9529 1.4 10.2774 -82.7628 -116.734
1995 24.9972 10.9529 1.4 10.4846 -68.8383 166.861
1996 25.4972 10.9529 1.4 10.7112 -73.2403 -113.008
1997 25.9972 10.9529 1.4 10.9559 -86.5525 12.8493
1998 26.4972 10.9529 1.4 11.2176 -250 0
1999 26.9972 10.9529 1.4 11.4951 -96.7378 -64.7061
2000 27.4972 10.9529 1.4 11.7872 -95.9992 -62.9878
2001 27.9972 10.9529 1.4 12.093 -75.7198 -50.2272
2002 28.4972 10.9529 1.4 12.4114 -75.0567 122.19
2003 28.9972 10.9529 1.4 12.7415 -250 0
2004 29.4972 10.9529 1.4 13.0824 -250 0
2005 29.9972 10.9529 1.4 13.4332 -250 0
2006 30.4972 10.9529 1.4 13.7932 -250 0
2007 -28.0028 11.4529 1.4 49.2664 -250 0
2008 -27.5028 11.4529 1.4 48.7748 -250 0
2009 -27.0028 11.4529 1.4 48.2834 -250 0
2010 -26.5028 11.4529 1.4 47.7921 -250 0
2011 -26.0028 11.4529 1.4 47.301 -250 0
2012 -25.5028 11.4529 1.4 46.8102 -250 0
2013 -25.0028 11.4529 1.4 46.3195 -250 0
2014 -24.5028 11.4529 1.4 45.829 -250 0
2015 -24.0028 11.4529 1.4 45.3387 -250 0
2016 -23.5028 11.4529 1.4 44.8486 -250 0
2017 -23.0028 11.4529 1.4 44.3588 -115.157 21.7529
2018 -22.5028 11.4529 1.4 43.8692 -250 0
2019 -22.0028 11.4529 1.4 43.3798 -250 0
2020 -21.5028 11.4529 1.4 42.8907 -250 0
2021 -21.0028 11.4529 1.4 42.4018 -250 0
2022 -20.5028 11.4529 1.4 41.9132 -84.5882 -78.8689
2023 -20.0028 11.4529 1.4 41.4248 -250 0
2024 -19.5028 11.4529 1.4 40.9368 -250 0
2025 -19.0028 11.4529 1.4 40.449 -93.8906 90.3452
2026 -18.5028 11.4529 1.4 39.9615 -103.369 98.2167
2027 -18.0028 11.4529 1.4 39.4744 -96.3968 -24.6247
2028 -17.5028 11.4529 1.4 38.9876 -102.435 -13.9644
2029 -17.0028 11.4529 1.4 38.5011 -250 0
2030 -16.5028 11.4529 1.4 38.0149 -250 0
2031 -16.0028 11.4529 1.4 37.5291 -250 0
2032 -15.5028 11.4529 1.4 37.0437 -79.6462 30.4124
2033 -15.0028 11.4529 1.4 36.5587 -143.061 146.954
2034 -14.5028 11.4529 1.4 36.0741 -250 0
2035 -14.0028 11.4529 1.4 35.59 -250 0
2036 -13.5028 11.4529 1.4 35.1062 -91.57 -54.7319
2037 -13.0028 11.4529 1.4 34.623 -250 0
2038 -12.5028 11.4529 1.4 34.1402 -97.0362 174.368
2039 -12.0028 11.4529 1.4 33.6579 -96.8548 139.075
2040 -11.5028 11.4529 1.4 33.1762 -250 0
2041 -11.0028 11.4529 1.4 32.695 -250 0
2042 -10.5028 11.4529 1.4 32.2143 -250 0
2043 -10.0028 11.4529 1.4 31.7343 -250 0
2044 -9.50282 11.4529 1.4 31.2549 -101.433 -128.96
2045 -9.00282 11.4529 1.4 30.7761 -250 0
2046 -8.50282 11.4529 1.4 30.2981 -250 0
2047 -8.00282 11.4529 1.4 29.8207 -250 0
2048 -7.50282 11.4529 1.4 29.3441 -250 0
2049 -7.00282 11.4529 1.4 28.8683 -80.7826 104.686
2050 -6.50282 11.4529 1.4 28.3933 -86.8656 22.036
2051 -6.00282 11.4529 1.4 27.9192 -81.4417 151.93
2052 -5.50282 11.4529 1.4 27.4461 -87.306 61.7152
2053 -5.00282 11.4529 1.4 26.9739 -77.0385 173.113
2054 -4.50282 11.4529 1.4 26.5027 -82.2958 -45.0979
2055 -4.00282 11.4529 1.4 26.0326 -250 0
2056 -3.50282 11.4529 1.4 25.5636 -250 0
2057 -3.00282 11.4529 1.4 25.0958 -250 0
2058 -2.50282 11.4529 1.4 24.6293 -250 0
2059 -2.00282 11.4529 1.4 24.1641 -250 0
2060 -1.50282 11.4529 1.4 23.7003 -86.3848 -123.422
2061 -1.00282 11.4529 1.4 23.2381 -81.5656 6.95182
2062 -0.50282 11.4529 1.4 22.7774 -67.8593 60.2886
2063 -0.00282 11.4529 1.4 22.3184 -69.2752 160.123
2064 0.49718 11.4529 1.4 21.8613 -76.6611 -36.7999
2065 0.99718 11.4529 1.4 21.406 -89.5049 126.693
2066 1.49718 11.4529 1.4 20.9528 -89.8955 72.7854
2067 1.99718 11.4529 1.4 20.5018 -93.7376 16.5533
2068 2.49718 11.4529 1.4 20.0531 -79.8376 -142.996
2069 2.99718 11.4529 1.4 19.6068 -80.6887 121.466
2070 3.49718 11.4529 1.4 19.1632 -78.0991 -62.5979
2071 3.99718 11.4529 1.4 18.7225 -68.3426 165.519
2072 4.49718 11.4529 1.4 18.2848 -76.3025 71.1921
2073 4.99718 11.4529 1.4 17.8504 -78.9771 -82.6454
2074 5.49718 11.4529 1.4 17.4195 -72.6876 -41.8874
2075 5.99718 11.4529 1.4 16.9924 -87.011 -141.56
2076 6.49718 11.4529 1.4 16.5694 -87.2347 63.9184
2077 6.99718 11.4529 1.4 16.1507 -250 0
2078 7.49718 11.4529 1.4 15.7369 -86.1404 -163.67
2079 7.99718 11.4529 1.4 15.3281 -77.218 35.6626
2080 8.49718 11.4529 1.4 14.9249 -71.8582 -38.2161
2081 8.99718 11.4529 1.4 14.5278 -68.0534 -41.0621
2082 9.49718 11.4529 1.4 14.1371 -77.5139 90.6373
2083 9.99718 11.4529 1.4 13.7536 -62.5969 -165.874
2084 10.4972 11.4529 1.4 13.3777 -82.0821 108.665
2085 10.9972 11.4529 1.4 13.0102 -71.8253 138.209
2086 11.4972 11.4529 1.4 12.6518 -71.6307 134.042
2087 11.9972 11.4529 1.4 12.3033 -112.221 -114.6
2088 12.4972 11.4529 1.4 11.9655 -82.4155 -12.4521
2089 12.9972 11.4529 1.4 11.6394 -83.7732 -63.6265
2090 13.4972 11.4529 1.4 11.326 -81.451 36.9941
2091 13.9972 11.4529 1.4 11.0263 -105.91 7.69107
2092 14.4972 11.4529 1.4 10.7416 -103.838 32.6765
2093 14.9972 11.4529 1.4 10.473 -83.0454 -10.7579
2094 15.4972 11.4529 1.4 10.2219 -58.1309 122.452
2095 15.9972 11.4529 1.4 9.98947 -69.2291 -115.253
2096 16.4972 11.4529 1.4 9.77711 -53.5311 -139.052
2097 16.9972 11.4529 1.4 9.58615 -54.4844 145.181
2098 17.4972 11.4529 1.4 9.41789 -56.3764 -115.897
2099 17.9972 11.4529 1.4 9.27356 -80.75 61.0341
2100 18.4972 11.4529 1.4 9.15431 -85.2917 -144.462
2101 18.9972 11.4529 1.4 9.06111 -74.1201 -63.6643
2102 19.4972 11.4529 1.4 8.99479 -57.5084 98.6845
2103 19.9972 11.4529 1.4 8.95592 -52.1825 46.0257
2104 20.4972 11.4529 1.4 8.94488 -54.3388 -39.7519
2105 20.9972 11.4529 1.4 8.96177 -61.8564 -12.4276
2106 21.4972 11.4529 1.4 9.00643 -70.7609 166.96
2107 21.9972 11.4529 1.4 9.07844 -82.7096 -127.587
2108 22.4972 11.4529 1.4 9.17717 -58.8462 -45.981
2109 22.9972 11.4529 1.4 9.30177 -60.2742 29.5149
2110 23.4972 11.4529 1.4 9.4512 -64.4195 137.921
2111 23.9972 11.4529 1.4 9.62433 -78.6419 66.5837
2112 24.4972 11.4529 1.4 9.81988 -76.2299 178.686
2113 24.9972 11.4529 1.4 10.0366 -68.3336 -41.3519
2114 25.4972 11.4529 1.4 10.273 -66.9821 79.694
2115 25.9972 11.4529 1.4 10.5279 -74.361 158.615
2116 26.4972 11.4529 1.4 10.8 -81.3825 -89.1908
2117 26.9972 11.4529 1.4 11.0879 -96.1182 158.708
2118 27.4972 11.4529 1.4 11.3905 -97.948 3.45619
2119 27.9972 11.4529 1.4 11.7067 -82.2755 101.909
2120 28.4972 11.4529 1.4 12.0353 -67.21 -126.85
2121 28.9972 11.4529 1.4 12.3754 -250 0
2122 29.4972 11.4529 1.4 12.7261 -250 0
2123 29.9972 11.4529 1.4 13.0865 -250 0
2124 30.4972 11.4529 1.4 13.4558 -250 0
2125 -28.0028 11.9529 1.4 49.1781 -250 0
2126 -27.5028 11.9529 1.4 48.6856 -250 0
2127 -27.0028 11.9529 1.4 48.1933 -250 0
2128 -26.5028 11.9529 1.4 47.7011 -250 0
2129 -26.0028 11.9529 1.4 47.209 -250 0
2130 -25.5028 11.9529 1.4 46.7172 -250 0
2131 -25.0028 11.9529 1.4 46.2255 -250 0
2132 -24.5028 11.9529 1.4 45.734 -250 0
2133 -24.0028 11.9529 1.4 45.2427 -250 0
2134 -23.5028 11.9529 1.4 44.7516 -250 0
2135 -23.0028 11.9529 1.4 44.2607 -250 0
2136 -22.5028 11.9529 1.4 43.77 -250 0
2137 -22.0028 11.9529 1.4 43.2795 -250 0
2138 -21.5028 11.9529 1.4 42.7892 -94.5855 63.6164
2139 -21.0028 11.9529 1.4 42.2991 -250 0
2140 -20.5028 11.9529 1.4 41.8093 -94.2537 72.8911
2141 -20.0028 11.9529 1.4 41.3198 -94.9842 97.9372
2142 -19.5028 11.9529 1.4 40.8304 -250 0
2143 -19.0028 11.9529 1.4 40.3414 -114.618 -29.3478
2144 -18.5028 11.9529 1.4 39.8526 -114.443 -27.3838
2145 -18.0028 11.9529 1.4 39.3641 -250 0
2146 -17.5028 11.9529 1.4 38.8759 -250 0
2147 -17.0028 11.9529 1.4 38.388 -250 0
2148 -16.5028 11.9529 1.4 37.9004 -75.5115 175.047
2149 -16.0028 11.9529 1.4 37.4131 -87.3838 -35.2112
2150 -15.5028 11.9529 1.4 36.9262 -250 0
2151 -15.0028 11.9529 1.4 36.4396 -88.1237 -125.802
2152 -14.5028 11.9529 1.4 35.9534 -79.6032 99.3014
2153 -14.0028 11.9529 1.4 35.4676 -112.549 -48.665
2154 -13.5028 11.9529 1.4 34.9822 -128.366 51.9448
2155 -13.0028 11.9529 1.4 34.4972 -106.736 -27.096
2156 -12.5028 11.9529 1.4 34.0126 -102.966 83.8791
2157 -12.0028 11.9529 1.4 33.5285 -102.833 120.617
2158 -11.5028 11.9529 1.4 33.0449 -102.697 157.327
2159 -11.0028 11.9529 1.4 32.5617 -106.316 -149.492
2160 -10.5028 11.9529 1.4 32.0791 -92.5427 166.165
2161 -10.0028 11.9529 1.4 31.597 -102.277 -92.7209
2162 -9.50282 11.9529 1.4 31.1155 -102.132 -56.1355
2163 -9.00282 11.9529 1.4 30.6345 -101.984 -19.5858
2164 -8.50282 11.9529 1.4 30.1542 -101.834 16.9258
2165 -8.00282 11.9529 1.4 29.6746 -101.681 53.3971
2166 -7.50282 11.9529 1.4 29.1956 -101.526 89.8256
2167 -7.00282 11.9529 1.4 28.7173 -250 0
2168 -6.50282 11.9529 1.4 28.2398 -250 0
2169 -6.00282 11.9529 1.4 27.7631 -82.6069 -178.34
2170 -5.50282 11.9529 1.4 27.2872 -82.6004 71.9162
2171 -5.00282 11.9529 1.4 26.8122 -83.2803 -143.183
2172 -4.50282 11.9529 1.4 26.3381 -75.2136 138.566
2173 -4.00282 11.9529 1.4 25.865 -77.5514 164.655
2174 -3.50282 11.9529 1.4 25.3929 -82.0683 7.9231
2175 -3.00282 11.9529 1.4 24.922 -250 0
2176 -2.50282 11.9529 1.4 24.4521 -250 0
2177 -2.00282 11.9529 1.4 23.9835 -81.0109 87.7238
2178 -1.50282 11.9529 1.4 23.5162 -77.6946 37.6079
2179 -1.00282 11.9529 1.4 23.0502 -73.9213 101.332
2180 -0.50282 11.9529 1.4 22.5857 -77.8225 -50.582
2181 -0.00282 11.9529 1.4 22.1228 -75.3583 0.301754
2182 0.49718 11.9529 1.4 21.6615 -72.3165 81.7967
2183 0.99718 11.9529 1.4 21.202 -73.069 175.532
2184 1.49718 11.9529 1.4 20.7443 -250 0
2185 1.99718 11.9529 1.4 20.2886 -80.0574 -80.6376
2186 2.49718 11.9529 1.4 19.8351 -81.5739 -102.493
2187 2.99718 11.9529 1.4 19.3838 -74.6077 117.35
2188 3.49718 11.9529 1.4 18.935 -75.2935 -59.7536
2189 3.99718 11.9529 1.4 18.4888 -93.8329 173.748
2190 4.49718 11.9529 1.4 18.0455 -83.7036 18.9052
2191 4.99718 11.9529 1.4 17.6052 -75.1158 -119.665
2192 5.49718 11.9529 1.4 17.1681 -98.4546 136.365
2193 5.99718 11.9529 1.4 16.7346 -75.8954 -122.441
2194 6.49718 11.9529 1.4 16.3049 -250 0
2195 6.99718 11.9529 1.4 15.8793 -80.4925 106.105
2196 7.49718 11.9529 1.4 15.4581 -89.0563 25.5179
2197 7.99718 11.9529 1.4 15.0418 -77.4013 122.213
2198 8.49718 11.9529 1.4 14.6308 -63.7289 51.4036
2199 8.99718 11.9529 1.4 14.2254 -79.6778 -159.501
2200 9.49718 11.9529 1.4 13.8262 -71.6956 23.8906
2201 9.99718 11.9529 1.4 13.4338 -70.9742 -155.764
2202 10.4972 11.9529 1.4 13.0487 -61.031 118.34
2203 10.9972 11.9529 1.4 12.6717 -71.3543 -111.322
2204 11.4972 11.9529 1.4 12.3034 -71.5782 -15.7047
2205 11.9972 11.9529 1.4 11.9447 -106.116 65.0455
2206 12.4972 11.9529 1.4 11.5965 -72.13 90.4558
2207 12.9972 11.9529 1.4 11.2597 -74.1039 152.974
2208 13.4972 11.9529 1.4 10.9354 -101.888 94.2569
2209 13.9972 11.9529 1.4 10.6247 -100.19 88.9651
2210 14.4972 11.9529 1.4 10.329 -80.4968 78.9377
2211 14.9972 11.9529 1.4 10.0494 -82.5105 130.796
2212 15.4972 11.9529 1.4 9.78736 -81.4354 -78.9593
2213 15.9972 11.9529 1.4 9.54436 -58.1509 7.36207
2214 16.4972 11.9529 1.4 9.32186 -55.4807 94.2925
2215 16.9972 11.9529 1.4 9.12138 -52.5912 36.3437
2216 17.4972 11.9529 1.4 8.94438 -55.0872 -153.152
2217 17.9972 11.9529 1.4 8.79228 -77.627 -57.1716
2218 18.4972 11.9529 1.4 8.66641 -84.0214 85.8034
2219 18.9972 11.9529 1.4 8.56791 -57.4544 -49.976
2220 19.4972 11.9529 1.4 8.49773 -51.6294 -70.0191
2221 19.9972 11.9529 1.4 8.45658 -54.6608 -154.131
2222 20.4972 11.9529 1.4 8.44489 -59.151 -91.941
2223 20.9972 11.9529 1.4 8.46278 -59.0402 -124.145
2224 21.4972 11.9529 1.4 8.51005 -68.3178 -31.6982
2225 21.9972 11.9529 1.4 8.58623 -58.6272 -118.824
2226 22.4972 11.9529 1.4 8.69056 -59.509 -43.2603
2227 22.9972 11.9529 1.4 8.82203 -62.6334 64.5774
2228 23.4972 11.9529 1.4 8.97945 -75.0874 -87.0787
2229 23.9972 11.9529 1.4 9.16149 -74.8183 -32.4294
2230 24.4972 11.9529 1.4 9.36671 -72.4389 59.4452
2231 24.9972 11.9529 1.4 9.59363 -250 0
2232 25.4972 11.9529 1.4 9.84074 -69.574 -126.797
2233 25.9972 11.9529 1.4 10.1066 -67.3057 3.24614
2234 26.4972 11.9529 1.4 10.3897 -63.6553 48.7461
2235 26.9972 11.9529 1.4 10.6887 -100.046 -35.2197
2236 27.4972 11.9529 1.4 11.0023 -75.8839 -24.5535
2237 27.9972 11.9529 1.4 11.3293 -61.1281 -120.728
2238 28.4972 11.9529 1.4 11.6685 -72.5086 -66.2632
2239 28.9972 11.9529 1.4 12.019 -250 0
2240 29.4972 11.9529 1.4 12.3798 -250 0
2241 29.9972 11.9529 1.4 12.75 -250 0
2242 30.4972 11.9529 1.4 13.1287 -250 0
2243 -28.0028 12.4529 1.4 49.0947 -126.4 93.7727
2244 -27.5028 12.4529 1.4 48.6014 -125.955 129.127
2245 -27.0028 12.4529 1.4 48.1082 -126.428 162.613
2246 -26.5028 12.4529 1.4 47.6151 -126.594 -161.578
2247 -26.0028 12.4529 1.4 47.1222 -129.687 -23.6154
2248 -25.5028 12.4529 1.4 46.6294 -111.097 51.0842
2249 -25.0028 12.4529 1.4 46.1368 -102.186 84.7607
2250 -24.5028 12.4529 1.4 45.6443 -123.975 9.90344
2251 -24.0028 12.4529 1.4 45.1521 -98.3104 164.331
2252 -23.5028 12.4529 1.4 44.66 -110.462 -81.8686
2253 -23.0028 12.4529 1.4 44.168 -110.436 -47.3176
2254 -22.5028 12.4529 1.4 43.6763 -110.413 -12.8355
2255 -22.0028 12.4529 1.4 43.1847 -83.6249 21.5685
2256 -21.5028 12.4529 1.4 42.6933 -98.0179 59.306
2257 -21.0028 12.4529 1.4 42.2022 -109.035 60.0016
2258 -20.5028 12.4529 1.4 41.7112 -111.748 87.9316
2259 -20.0028 12.4529 1.4 41.2205 -105.946 152.25
2260 -19.5028 12.4529 1.4 40.73 -102.121 -176.251
2261 -19.0028 12.4529 1.4 40.2397 -87.2814 16.7759
2262 -18.5028 12.4529 1.4 39.7497 -110.31 -99.8552
2263 -18.0028 12.4529 1.4 39.2599 -127.024 29.142
2264 -17.5028 12.4529 1.4 38.7703 -126.788 65.341
2265 -17.0028 12.4529 1.4 38.2811 -85.389 -77.7266
2266 -16.5028 12.4529 1.4 37.7921 -92.7174 -26.9308
2267 -16.0028 12.4529 1.4 37.3034 -115.143 -24.3702
2268 -15.5028 12.4529 1.4 36.8151 -125.807 -150.27
2269 -15.0028 12.4529 1.4 36.327 -100.481 -14.4078
2270 -14.5028 12.4529 1.4 35.8393 -92.5583 -57.1069
2271 -14.0028 12.4529 1.4 35.3519 -83.9443 -94.2469
2272 -13.5028 12.4529 1.4 34.8649 -86.6938 -13.5665
2273 -13.0028 12.4529 1.4 34.3782 -103.021 -11.6766
2274 -12.5028 12.4529 1.4 33.8919 -102.889 24.0741
2275 -12.0028 12.4529 1.4 33.4061 -85.737 -29.7856
2276 -11.5028 12.4529 1.4 32.9206 -102.618 95.3883
2277 -11.0028 12.4529 1.4 32.4356 -102.479 130.945
2278 -10.5028 12.4529 1.4 31.9511 -98.0543 -156.988
2279 -10.0028 12.4529 1.4 31.4671 -96.7385 -135.658
2280 -9.50282 12.4529 1.4 30.9835 -94.7658 -176.305
2281 -9.00282 12.4529 1.4 30.5005 -100.535 149.735
2282 -8.50282 12.4529 1.4 30.018 -101.748 -52.4359
2283 -8.00282 12.4529 1.4 29.5362 -101.594 -17.3781
2284 -7.50282 12.4529 1.4 29.0549 -81.6026 107.766
2285 -7.00282 12.4529 1.4 28.5743 -250 0
2286 -6.50282 12.4529 1.4 28.0944 -250 0
2287 -6.00282 12.4529 1.4 27.6151 -250 0
2288 -5.50282 12.4529 1.4 27.1366 -250 0
2289 -5.00282 12.4529 1.4 26.659 -250 0
2290 -4.50282 12.4529 1.4 26.1821 -79.876 132.14
2291 -4.00282 12.4529 1.4 25.7061 -84.9785 13.8383
2292 -3.50282 12.4529 1.4 25.2311 -77.6574 63.4777
2293 -3.00282 12.4529 1.4 24.757 -86.655 -104.352
2294 -2.50282 12.4529 1.4 24.284 -75.3469 72.7889
2295 -2.00282 12.4529 1.4 23.8121 -76.591 87.9748
2296 -1.50282 12.4529 1.4 23.3413 -77.9076 -118.834
2297 -1.00282 12.4529 1.4 22.8718 -85.8671 -23.3574
2298 -0.50282 12.4529 1.4 22.4036 -250 0
2299 -0.00282 12.4529 1.4 21.9368 -250 0
2300 0.49718 12.4529 1.4 21.4715 -72.6021 -96.3361
2301 0.99718 12.4529 1.4 21.0078 -73.9603 -15.5663
2302 1.49718 12.4529 1.4 20.5458 -73.3757 64.5746
2303 1.99718 12.4529 1.4 20.0856 -79.8964 -14.0344
2304 2.49718 12.4529 1.4 19.6274 -72.5333 -97.5968
2305 2.99718 12.4529 1.4 19.1713 -76.3545 -103.806
2306 3.49718 12.4529 1.4 18.7174 -81.5672 154.837
2307 3.99718 12.4529 1.4 18.2659 -87.9551 95.8301
2308 4.49718 12.4529 1.4 17.817 -91.4469 120.721
2309 4.99718 12.4529 1.4 17.3709 -77.3073 -148.953
2310 5.49718 12.4529 1.4 16.9278 -76.8914 89.3593
2311 5.99718 12.4529 1.4 16.4879 -92.9014 136.906
2312 6.49718 12.4529 1.4 16.0516 -71.0293 -169.708
2313 6.99718 12.4529 1.4 15.6191 -100.437 -130.834
2314 7.49718 12.4529 1.4 15.1908 -67.404 75.944
2315 7.99718 12.4529 1.4 14.7669 -65.3937 141.08
2316 8.49718 12.4529 1.4 14.348 -93.2302 116.731
2317 8.99718 12.4529 1.4 13.9344 -250 0
2318 9.49718 12.4529 1.4 13.5266 -250 0
2319 9.99718 12.4529 1.4 13.1252 -84.7844 -147.006
2320 10.4972 12.4529 1.4 12.7308 -71.748 46.3719
2321 10.9972 12.4529 1.4 12.3441 -60.4904 17.7447
2322 11.4972 12.4529 1.4 11.9657 -68.402 163.621
2323 11.9972 12.4529 1.4 11.5966 -72.3005 -148.48
2324 12.4972 12.4529 1.4 11.2376 -80.7149 -94.2057
2325 12.9972 12.4529 1.4 10.8897 -100.396 78.7067
2326 13.4972 12.4529 1.4 10.5541 -81.2713 122.224
2327 13.9972 12.4529 1.4 10.2318 -83.101 -165.652
2328 14.4972 12.4529 1.4 9.92436 -95.3054 -104.032
2329 14.9972 12.4529 1.4 9.63303 -92.8313 129.051
2330 15.4972 12.4529 1.4 9.35936 -89.3269 -62.1734
2331 15.9972 12.4529 1.4 9.10494 -92.1673 -100.55
2332 16.4972 12.4529 1.4 8.87144 -66.2179 -116.644
2333 16.9972 12.4529 1.4 8.66053 -51.3394 -84.2794
2334 17.4972 12.4529 1.4 8.47391 -53.6679 -164.836
2335 17.9972 12.4529 1.4 8.31321 -64.2793 -81.1101
2336 18.4972 12.4529 1.4 8.17997 -56.8608 113.956
2337 18.9972 12.4529 1.4 8.07554 -51.1259 170.784
2338 19.4972 12.4529 1.4 8.00104 -51.814 85.0252
2339 19.9972 12.4529 1.4 7.95733 -58.7536 25.8776
2340 20.4972 12.4529 1.4 7.9449 -77.6316 -48.4781
2341 20.9972 12.4529 1.4 7.96391 -94.1298 -165.095
2342 21.4972 12.4529 1.4 8.01413 -52.3752 156.751
2343 21.9972 12.4529 1.4 8.09498 -60.7659 -111.607
2344 22.4972 12.4529 1.4 8.20555 -60.6967 -15.4835
2345 22.9972 12.4529 1.4 8.34466 -71.5246 45.4853
2346 23.4972 12.4529 1.4 8.51092 -79.0681 140.443
2347 23.9972 12.4529 1.4 8.70277 -82.2647 135.271
2348 24.4972 12.4529 1.4 8.91855 -89.398 21.5455
2349 24.9972 12.4529 1.4 9.15658 -250 0
2350 25.4972 12.4529 1.4 9.41517 -250 0
2351 25.9972 12.4529 1.4 9.69266 -66.2943 133.554
2352 26.4972 12.4529 1.4 9.9875 -67.1993 -98.62
2353 26.9972 12.4529 1.4 10.2982 -62.4171 -33.5571
2354 27.4972 12.4529 1.4 10.6233 -61.1986 160.049
2355 27.9972 12.4529 1.4 10.9616 -72.5998 -146.985
2356 28.4972 12.4529 1.4 11.3119 -75.0374 110.564
2357 28.9972 12.4529 1.4 11.6731 -250 0
2358 29.4972 12.4529 1.4 12.0443 -250 0
2359 29.9972 12.4529 1.4 12.4244 -250 0
2360 30.4972 12.4529 1.4 12.8129 -250 0
2361 -28.0028 12.9529 1.4 49.0163 -111.13 74.1094
2362 -27.5028 12.9529 1.4 48.5221 -103.083 108.05
2363 -27.0028 12.9529 1.4 48.0281 -115.721 33.1027
2364 -26.5028 12.9529 1.4 47.5342 -103.237 131.974
2365 -26.0028 12.9529 1.4 47.0405 -118.604 174.486
2366 -25.5028 12.9529 1.4 46.5468 -118.731 175.902
2367 -25.0028 12.9529 1.4 46.0533 -120.761 -166.175
2368 -24.5028 12.9529 1.4 45.56 -123.274 -167.81
2369 -24.0028 12.9529 1.4 45.0668 -108.861 -115.578
2370 -23.5028 12.9529 1.4 44.5737 -97.6987 160.097
2371 -23.0028 12.9529 1.4 44.0808 -95.7319 4.19126
2372 -22.5028 12.9529 1.4 43.5881 -99.3494 93.9242
2373 -22.0028 12.9529 1.4 43.0955 -110.233 -40.3992
2374 -21.5028 12.9529 1.4 42.6031 -110.223 -6.83363
2375 -21.0028 12.9529 1.4 42.1109 -110.216 26.6325
2376 -20.5028 12.9529 1.4 41.6189 -110.212 59.9944
2377 -20.0028 12.9529 1.4 41.127 -110.212 93.2473
2378 -19.5028 12.9529 1.4 40.6354 -110.215 126.386
2379 -19.0028 12.9529 1.4 40.144 -110.223 159.404
2380 -18.5028 12.9529 1.4 39.6527 -110.235 -167.704
2381 -18.0028 12.9529 1.4 39.1618 -75.3394 -120.551
2382 -17.5028 12.9529 1.4 38.671 -91.8093 69.5125
2383 -17.0028 12.9529 1.4 38.1805 -124.043 27.0366
2384 -16.5028 12.9529 1.4 37.6902 -123.801 62.0281
2385 -16.0028 12.9529 1.4 37.2002 -123.556 96.9424
2386 -15.5028 12.9529 1.4 36.7104 -123.308 131.776
2387 -15.0028 12.9529 1.4 36.2209 -123.056 166.525
2388 -14.5028 12.9529 1.4 35.7318 -122.8 -158.815
2389 -14.0028 12.9529 1.4 35.2429 -122.54 -124.248
2390 -13.5028 12.9529 1.4 34.7543 -100.399 84.7049
2391 -13.0028 12.9529 1.4 34.2661 -72.4067 -58.9378
2392 -12.5028 12.9529 1.4 33.7782 -102.82 -61.133
2393 -12.0028 12.9529 1.4 33.2907 -102.685 -26.9348
2394 -11.5028 12.9529 1.4 32.8036 -102.547 7.14569
2395 -11.0028 12.9529 1.4 32.3168 -102.408 41.1022
2396 -10.5028 12.9529 1.4 31.8305 -102.266 74.9277
2397 -10.0028 12.9529 1.4 31.3446 -102.121 108.615
2398 -9.50282 12.9529 1.4 30.8591 -101.974 142.156
2399 -9.00282 12.9529 1.4 30.3741 -101.825 175.542
2400 -8.50282 12.9529 1.4 29.8896 -93.6096 -59.0726
2401 -8.00282 12.9529 1.4 29.4056 -77.383 -143.107
2402 -7.50282 12.9529 1.4 28.9222 -99.0306 6.83323
2403 -7.00282 12.9529 1.4 28.4393 -250 0
2404 -6.50282 12.9529 1.4 27.9571 -250 0
2405 -6.00282 12.9529 1.4 27.4754 -250 0
2406 -5.50282 12.9529 1.4 26.9945 -250 0
2407 -5.00282 12.9529 1.4 26.5142 -250 0
2408 -4.50282 12.9529 1.4 26.0347 -250 0
2409 -4.00282 12.9529 1.4 25.556 -88.0211 -28.9539
2410 -3.50282 12.9529 1.4 25.0781 -75.9678 -143.436
2411 -3.00282 12.9529 1.4 24.6011 -68.7393 30.8161
2412 -2.50282 12.9529 1.4 24.125 -73.9148 -164.74
2413 -2.00282 12.9529 1.4 23.6499 -81.4442 -69.8107
2414 -1.50282 12.9529 1.4 23.1759 -250 0
2415 -1.00282 12.9529 1.4 22.703 -250 0
2416 -0.50282 12.9529 1.4 22.2312 -250 0
2417 -0.00282 12.9529 1.4 21.7607 -250 0
2418 0.49718 12.9529 1.4 21.2916 -250 0
2419 0.99718 12.9529 1.4 20.8239 -79.078 46.1336
2420 1.49718 12.9529 1.4 20.3577 -70.8321 -109.935
2421 1.99718 12.9529 1.4 19.8932 -69.0751 1.39815
2422 2.49718 12.9529 1.4 19.4304 -70.7533 76.4409
2423 2.99718 12.9529 1.4 18.9695 -88.3951 34.22
2424 3.49718 12.9529 1.4 18.5107 -250 0
2425 3.99718 12.9529 1.4 18.054 -250 0
2426 4.49718 12.9529 1.4 17.5997 -250 0
2427 4.99718 12.9529 1.4 17.148 -80.9049 153.036
2428 5.49718 12.9529 1.4 16.699 -80.6949 -136.185
2429 5.99718 12.9529 1.4 16.2529 -73.3704 -49.4281
2430 6.49718 12.9529 1.4 15.8101 -76.9925 131.448
2431 6.99718 12.9529 1.4 15.3708 -61.3668 141.08
2432 7.49718 12.9529 1.4 14.9353 -66.6561 -152.852
2433 7.99718 12.9529 1.4 14.504 -82.7276 136.266
2434 8.49718 12.9529 1.4 14.0773 -250 0
2435 8.99718 12.9529 1.4 13.6555 -250 0
2436 9.49718 12.9529 1.4 13.2391 -250 0
2437 9.99718 12.9529 1.4 12.8287 -250 0
2438 10.4972 12.9529 1.4 12.4249 -250 0
2439 10.9972 12.9529 1.4 12.0284 -84.3029 -83.2725
2440 11.4972 12.9529 1.4 11.6397 -79.3204 0.892084
2441 11.9972 12.9529 1.4 11.2599 -54.4925 19.9544
2442 12.4972 12.9529 1.4 10.8898 -77.6986 148.213
2443 12.9972 12.9529 1.4 10.5305 -98.3573 -74.2033
2444 13.4972 12.9529 1.4 10.183 -96.8276 -167.484
2445 13.9972 12.9529 1.4 9.84864 -95.0078 67.9814
2446 14.4972 12.9529 1.4 9.5288 -92.7077 -99.7917
2447 14.9972 12.9529 1.4 9.22499 -89.583 30.3563
2448 15.4972 12.9529 1.4 8.93884 -85.2927 66.9591
2449 15.9972 12.9529 1.4 8.6721 -102.327 -66.8054
2450 16.4972 12.9529 1.4 8.4266 -55.9096 47.8953
2451 16.9972 12.9529 1.4 8.20427 -53.7443 146.765
2452 17.4972 12.9529 1.4 8.00702 -52.1221 99.1848
2453 17.9972 12.9529 1.4 7.83676 -54.1174 -129.6
2454 18.4972 12.9529 1.4 7.69527 -83.7911 -133.774
2455 18.9972 12.9529 1.4 7.58417 -87.0515 146.926
2456 19.4972 12.9529 1.4 7.5048 -87.3105 -133.213
2457 19.9972 12.9529 1.4 7.45817 -82.6286 -46.8251
2458 20.4972 12.9529 1.4 7.44491 -81.2541 5.28221
2459 20.9972 12.9529 1.4 7.4652 -56.8655 88.6133
2460 21.4972 12.9529 1.4 7.51874 -58.8431 149.684
2461 21.9972 12.9529 1.4 7.60486 -65.9774 31.5669
2462 22.4972 12.9529 1.4 7.72245 -71.3805 -99.8001
2463 22.9972 12.9529 1.4 7.87011 -84.7674 3.81124
2464 23.4972 12.9529 1.4 8.04618 -84.6139 167.85
2465 23.9972 12.9529 1.4 8.24885 -85.6719 119.917
2466 24.4972 12.9529 1.4 8.47619 -250 0
2467 24.9972 12.9529 1.4 8.7263 -250 0
2468 25.4972 12.9529 1.4 8.99726 -250 0
2469 25.9972 12.9529 1.4 9.28725 -93.6639 65.5825
2470 26.4972 12.9529 1.4 9.59455 -66.8836 37.0495
2471 26.9972 12.9529 1.4 9.91755 -63.1111 135.829
2472 27.4972 12.9529 1.4 10.2548 -63.6182 -126.442
2473 27.9972 12.9529 1.4 10.6048 -76.3281 18.5397
2474 28.4972 12.9529 1.4 10.9665 -81.4724 -69.1138
2475 28.9972 12.9529 1.4 11.3388 -250 0
2476 29.4972 12.9529 1.4 11.7205 -250 0
2477 29.9972 12.9529 1.4 12.1108 -250 0
2478 30.4972 12.9529 1.4 12.509 -250 0
2479 -28.0028 13.4529 1.4 48.9428 -125.365 68.7688
2480 -27.5028 13.4529 1.4 48.4479 -125.15 14.1537
2481 -27.0028 13.4529 1.4 47.9532 -125.024 29.9283
2482 -26.5028 13.4529 1.4 47.4585 -250 0
2483 -26.0028 13.4529 1.4 46.9639 -250 0
2484 -25.5028 13.4529 1.4 46.4695 -250 0
2485 -25.0028 13.4529 1.4 45.9752 -250 0
2486 -24.5028 13.4529 1.4 45.481 -123.068 117.708
2487 -24.0028 13.4529 1.4 44.9869 -88.8799 89.8432
2488 -23.5028 13.4529 1.4 44.4929 -124.99 -154.358
2489 -23.0028 13.4529 1.4 43.9991 -124.786 -119.635
2490 -22.5028 13.4529 1.4 43.5055 -124.58 -84.9825
2491 -22.0028 13.4529 1.4 43.012 -99.1514 135.819
2492 -21.5028 13.4529 1.4 42.5186 -110.885 -168.909
2493 -21.0028 13.4529 1.4 42.0254 -110.982 177.989
2494 -20.5028 13.4529 1.4 41.5324 -106.098 -2.69328
2495 -20.0028 13.4529 1.4 41.0395 -112.105 48.1564
2496 -19.5028 13.4529 1.4 40.5468 -92.7634 -18.8128
2497 -19.0028 13.4529 1.4 40.0543 -90.3627 123.355
2498 -18.5028 13.4529 1.4 39.5619 -122.84 -170.693
2499 -18.0028 13.4529 1.4 39.0698 -122.609 -136.825
2500 -17.5028 13.4529 1.4 38.5779 -122.376 -103.065
2501 -17.0028 13.4529 1.4 38.0861 -86.7988 169.348
2502 -16.5028 13.4529 1.4 37.5946 -121.9 -35.8833
2503 -16.0028 13.4529 1.4 37.1033 -106.739 126.38
2504 -15.5028 13.4529 1.4 36.6123 -121.411 30.8102
2505 -15.0028 13.4529 1.4 36.1215 -121.161 63.9594
2506 -14.5028 13.4529 1.4 35.631 -107.286 -110.822
2507 -14.0028 13.4529 1.4 35.1407 -92.2396 -114.975
2508 -13.5028 13.4529 1.4 34.6507 -120.39 162.538
2509 -13.0028 13.4529 1.4 34.161 -102.893 155.881
2510 -12.5028 13.4529 1.4 33.6716 -83.2604 160.689
2511 -12.0028 13.4529 1.4 33.1825 -94.1581 104.818
2512 -11.5028 13.4529 1.4 32.6937 -89.3246 -138.767
2513 -11.0028 13.4529 1.4 32.2053 -250 0
2514 -10.5028 13.4529 1.4 31.7173 -250 0
2515 -10.0028 13.4529 1.4 31.2296 -97.9511 49.2462
2516 -9.50282 13.4529 1.4 30.7423 -93.1046 -101.59
2517 -9.00282 13.4529 1.4 30.2554 -77.7406 -145.068
2518 -8.50282 13.4529 1.4 29.769 -77.1429 14.0097
2519 -8.00282 13.4529 1.4 29.283 -92.1969 130.942
2520 -7.50282 13.4529 1.4 28.7975 -250 0
2521 -7.00282 13.4529 1.4 28.3126 -250 0
2522 -6.50282 13.4529 1.4 27.8281 -250 0
2523 -6.00282 13.4529 1.4 27.3442 -250 0
2524 -5.50282 13.4529 1.4 26.8609 -250 0
2525 -5.00282 13.4529 1.4 26.3782 -88.3508 -92.638
2526 -4.50282 13.4529 1.4 25.8962 -83.8951 136.18
2527 -4.00282 13.4529 1.4 25.4149 -76.0912 -89.3991
2528 -3.50282 13.4529 1.4 24.9343 -75.9023 -165.606
2529 -3.00282 13.4529 1.4 24.4544 -75.7564 -54.0641
2530 -2.50282 13.4529 1.4 23.9754 -80.949 -47.0669
2531 -2.00282 13.4529 1.4 23.4973 -71.5788 98.5851
2532 -1.50282 13.4529 1.4 23.0201 -85.7885 92.1244
2533 -1.00282 13.4529 1.4 22.5439 -81.1958 -16.8978
2534 -0.50282 13.4529 1.4 22.0688 -92.5238 48.9809
2535 -0.00282 13.4529 1.4 21.5948 -83.653 -59.5237
2536 0.49718 13.4529 1.4 21.1219 -71.9607 132.179
2537 0.99718 13.4529 1.4 20.6504 -90.7474 63.5424
2538 1.49718 13.4529 1.4 20.1802 -84.695 8.86781
2539 1.99718 13.4529 1.4 19.7115 -73.7641 -167.485
2540 2.49718 13.4529 1.4 19.2444 -71.5866 -72.2501
2541 2.99718 13.4529 1.4 18.7789 -70.1082 8.20046
2542 3.49718 13.4529 1.4 18.3153 -250 0
2543 3.99718 13.4529 1.4 17.8537 -250 0
2544 4.49718 13.4529 1.4 17.3941 -88.198 79.5313
2545 4.99718 13.4529 1.4 16.9369 -88.1189 -47.8565
2546 5.49718 13.4529 1.4 16.4821 -78.4576 -155.268
2547 5.99718 13.4529 1.4 16.0301 -82.9376 30.4819
2548 6.49718 13.4529 1.4 15.5809 -66.688 -114.472
2549 6.99718 13.4529 1.4 15.135 -63.5936 -51.4406
2550 7.49718 13.4529 1.4 14.6925 -71.0518 102.069
2551 7.99718 13.4529 1.4 14.2539 -73.3932 80.7738
2552 8.49718 13.4529 1.4 13.8194 -83.7451 -57.7887
2553 8.99718 13.4529 1.4 13.3894 -87.7874 -94.9008
2554 9.49718 13.4529 1.4 12.9645 -250 0
2555 9.99718 13.4529 1.4 12.5452 -250 0
2556 10.4972 13.4529 1.4 12.132 -250 0
2557 10.9972 13.4529 1.4 11.7255 -80.2238 165.82
2558 11.4972 13.4529 1.4 11.3265 -79.6528 -175.391
2559 11.9972 13.4529 1.4 10.9358 -67.5178 -125.408
2560 12.4972 13.4529 1.4 10.5543 -57.6609 -81.0021
2561 12.9972 13.4529 1.4 10.1831 -72.6746 51.0874
2562 13.4972 13.4529 1.4 9.82337 -94.9047 -150.058
2563 13.9972 13.4529 1.4 9.47634 -92.7567 11.2395
2564 14.4972 13.4529 1.4 9.14349 -89.9648 114.534
2565 14.9972 13.4529 1.4 8.82642 -71.485 125.738
2566 15.4972 13.4529 1.4 8.52691 -77.3792 58.1268
2567 15.9972 13.4529 1.4 8.24685 -80.4726 151.547
2568 16.4972 13.4529 1.4 7.9883 -67.3897 176.156
2569 16.9972 13.4529 1.4 7.75341 -71.1572 -102.372
2570 17.4972 13.4529 1.4 7.54438 -51.9276 -11.3989
2571 17.9972 13.4529 1.4 7.36343 -53.3613 -135.488
2572 18.4972 13.4529 1.4 7.21266 -83.794 -38.8756
2573 18.9972 13.4529 1.4 7.094 -86.2118 13.3276
2574 19.4972 13.4529 1.4 7.00908 -88.653 -132.879
2575 19.9972 13.4529 1.4 6.95914 -77.9252 -58.6616
2576 20.4972 13.4529 1.4 6.94493 -54.9338 15.3366
2577 20.9972 13.4529 1.4 6.96666 -57.0602 123.886
2578 21.4972 13.4529 1.4 7.02402 -58.9051 -155.841
2579 21.9972 13.4529 1.4 7.11612 -68.617 15.9212
2580 22.4972 13.4529 1.4 7.24166 -65.2905 -101.597
2581 22.9972 13.4529 1.4 7.39892 -86.282 -117.543
2582 23.4972 13.4529 1.4 7.58593 -83.3908 132.775
2583 23.9972 13.4529 1.4 7.80056 -84.4109 142.06
2584 24.4972 13.4529 1.4 8.04059 -250 0
2585 24.9972 13.4529 1.4 8.30383 -250 0
2586 25.4972 13.4529 1.4 8.58813 -250 0
2587 25.9972 13.4529 1.4 8.89147 -80.2546 -120.412
2588 26.4972 13.4529 1.4 9.21199 -62.322 11.4852
2589 26.9972 13.4529 1.4 9.54794 -70.0444 25.7366
2590 27.4972 13.4529 1.4 9.89775 -69.2327 29.201
2591 27.9972 13.4529 1.4 10.26 -62.4619 171.418
2592 28.4972 13.4529 1.4 10.6334 -87.5287 28.8703
2593 28.9972 13.4529 1.4 11.0169 -250 0
2594 29.4972 13.4529 1.4 11.4094 -250 0
2595 29.9972 13.4529 1.4 11.8101 -250 0
2596 30.4972 13.4529 1.4 12.218 -250 0
2597 -28.0028 13.9529 1.4 48.8744 -250 0
2598 -27.5028 13.9529 1.4 48.3788 -250 0
2599 -27.0028 13.9529 1.4 47.8833 -250 0
2600 -26.5028 13.9529 1.4 47.3879 -250 0
2601 -26.0028 13.9529 1.4 46.8926 -250 0
2602 -25.5028 13.9529 1.4 46.3974 -250 0
2603 -25.0028 13.9529 1.4 45.9023 -250 0
2604 -24.5028 13.9529 1.4 45.4073 -250 0
2605 -24.0028 13.9529 1.4 44.9124 -123.643 72.8737
2606 -23.5028 13.9529 1.4 44.4176 -123.443 106.443
2607 -23.0028 13.9529 1.4 43.923 -123.241 139.914
2608 -22.5028 13.9529 1.4 43.4285 -123.037 173.281
2609 -22.0028 13.9529 1.4 42.9341 -117 82.5545
2610 -21.5028 13.9529 1.4 42.4398 -118.337 51.9777
2611 -21.0028 13.9529 1.4 41.9457 -95.0007 -20.2624
2612 -20.5028 13.9529 1.4 41.4517 -97.5974 -114.779
2613 -20.0028 13.9529 1.4 40.9578 -99.922 88.9443
2614 -19.5028 13.9529 1.4 40.4641 -79.5538 -29.571
2615 -19.0028 13.9529 1.4 39.9706 -109.467 140
2616 -18.5028 13.9529 1.4 39.4772 -110.285 -85.0297
2617 -18.0028 13.9529 1.4 38.984 -250 0
2618 -17.5028 13.9529 1.4 38.491 -250 0
2619 -17.0028 13.9529 1.4 37.9981 -250 0
2620 -16.5028 13.9529 1.4 37.5055 -250 0
2621 -16.0028 13.9529 1.4 37.013 -250 0
2622 -15.5028 13.9529 1.4 36.5208 -93.1627 -89.6599
2623 -15.0028 13.9529 1.4 36.0287 -88.6987 -160.69
2624 -14.5028 13.9529 1.4 35.5369 -112.89 69.0428
2625 -14.0028 13.9529 1.4 35.0453 -105.372 104.438
2626 -13.5028 13.9529 1.4 34.5539 -250 0
2627 -13.0028 13.9529 1.4 34.0628 -250 0
2628 -12.5028 13.9529 1.4 33.572 -250 0
2629 -12.0028 13.9529 1.4 33.0814 -98.3433 77.842
2630 -11.5028 13.9529 1.4 32.5912 -77.6825 -94.6257
2631 -11.0028 13.9529 1.4 32.1012 -98.8132 -165.687
2632 -10.5028 13.9529 1.4 31.6115 -103.973 156.095
2633 -10.0028 13.9529 1.4 31.1222 -84.5177 91.6871
2634 -9.50282 13.9529 1.4 30.6332 -78.5268 -7.68959
2635 -9.00282 13.9529 1.4 30.1446 -82.4459 39.1937
2636 -8.50282 13.9529 1.4 29.6563 -250 0
2637 -8.00282 13.9529 1.4 29.1685 -250 0
2638 -7.50282 13.9529 1.4 28.6811 -250 0
2639 -7.00282 13.9529 1.4 28.1941 -250 0
2640 -6.50282 13.9529 1.4 27.7076 -250 0
2641 -6.00282 13.9529 1.4 27.2215 -81.2357 177.923
2642 -5.50282 13.9529 1.4 26.736 -83.9437 80.8586
2643 -5.00282 13.9529 1.4 26.251 -75.706 -140.509
2644 -4.50282 13.9529 1.4 25.7666 -78.3822 67.2346
2645 -4.00282 13.9529 1.4 25.2828 -75.9291 -46.6998
2646 -3.50282 13.9529 1.4 24.7997 -76.0165 28.7456
2647 -3.00282 13.9529 1.4 24.3172 -250 0
2648 -2.50282 13.9529 1.4 23.8354 -250 0
2649 -2.00282 13.9529 1.4 23.3544 -82.8959 -145.863
2650 -1.50282 13.9529 1.4 22.8743 -79.7279 -4.47897
2651 -1.00282 13.9529 1.4 22.395 -86.9785 -114.346
2652 -0.50282 13.9529 1.4 21.9166 -78.1352 151.909
2653 -0.00282 13.9529 1.4 21.4392 -77.1226 -134.464
2654 0.49718 13.9529 1.4 20.9629 -84.3922 125.662
2655 0.99718 13.9529 1.4 20.4877 -86.6246 121.161
2656 1.49718 13.9529 1.4 20.0137 -87.4941 69.2103
2657 1.99718 13.9529 1.4 19.541 -250 0
2658 2.49718 13.9529 1.4 19.0696 -70.9607 90.626
2659 2.99718 13.9529 1.4 18.5998 -70.0166 -168.71
2660 3.49718 13.9529 1.4 18.1316 -68.8558 -70.5636
2661 3.99718 13.9529 1.4 17.6652 -90.2702 -98.7864
2662 4.49718 13.9529 1.4 17.2006 -78.7192 142.786
2663 4.99718 13.9529 1.4 16.7381 -79.7243 2.09038
2664 5.49718 13.9529 1.4 16.2778 -87.0248 1.37645
2665 5.99718 13.9529 1.4 15.8199 -66.7383 -36.5661
2666 6.49718 13.9529 1.4 15.3646 -103.998 -151.677
2667 6.99718 13.9529 1.4 14.9122 -88.3312 -34.1386
2668 7.49718 13.9529 1.4 14.4629 -78.3493 -83.2897
2669 7.99718 13.9529 1.4 14.017 -64.9426 15.3282
2670 8.49718 13.9529 1.4 13.575 -71.8135 -85.1617
2671 8.99718 13.9529 1.4 13.1371 -83.1889 -82.8507
2672 9.49718 13.9529 1.4 12.7037 -82.0222 152.267
2673 9.99718 13.9529 1.4 12.2755 -78.8658 -124.905
2674 10.4972 13.9529 1.4 11.8528 -87.0944 -102.703
2675 10.9972 13.9529 1.4 11.4364 -85.8396 168.953
2676 11.4972 13.9529 1.4 11.027 -70.6516 -24.0228
2677 11.9972 13.9529 1.4 10.6253 -77.2324 -78.0045
2678 12.4972 13.9529 1.4 10.2323 -67.3381 90.6553
2679 12.9972 13.9529 1.4 9.84893 -59.4926 -151.831
2680 13.4972 13.9529 1.4 9.47649 -85.8041 -73.6765
2681 13.9972 13.9529 1.4 9.11626 -72.1238 122.172
2682 14.4972 13.9529 1.4 8.76976 -75.4515 50.9344
2683 14.9972 13.9529 1.4 8.43866 -78.2235 92.1331
2684 15.4972 13.9529 1.4 8.12486 -82.8673 -5.00968
2685 15.9972 13.9529 1.4 7.83044 -76.9667 -17.7562
2686 16.4972 13.9529 1.4 7.55766 -69.1636 -127.801
2687 16.9972 13.9529 1.4 7.30894 -74.2497 55.6071
2688 17.4972 13.9529 1.4 7.08682 -53.5993 -156.565
2689 17.9972 13.9529 1.4 6.89386 -49.7341 159.988
2690 18.4972 13.9529 1.4 6.73259 -83.9967 15.3793
2691 18.9972 13.9529 1.4 6.60531 -85.9205 162.312
2692 19.4972 13.9529 1.4 6.51402 -88.1066 129.319
2693 19.9972 13.9529 1.4 6.46026 -53.1394 -73.5922
2694 20.4972 13.9529 1.4 6.44494 -57.4625 31.3988
2695 20.9972 13.9529 1.4 6.46836 -59.3672 127.488
2696 21.4972 13.9529 1.4 6.53009 -80.0709 -113.947
2697 21.9972 13.9529 1.4 6.62906 -81.4941 -156.165
2698 22.4972 13.9529 1.4 6.76364 -64.6661 -42.2607
2699 22.9972 13.9529 1.4 6.93176 -84.7104 -59.7734
2700 23.4972 13.9529 1.4 7.13103 -80.1937 -10.4441
2701 23.9972 13.9529 1.4 7.35894 -82.879 156.926
2702 24.4972 13.9529 1.4 7.61291 -250 0
2703 24.9972 13.9529 1.4 7.89042 -80.9544 -74.3752
2704 25.4972 13.9529 1.4 8.18909 -100.938 22.5097
2705 25.9972 13.9529 1.4 8.50668 -63.0787 -68.9675
2706 26.4972 13.9529 1.4 8.84115 -67.3079 -41.8716
2707 26.9972 13.9529 1.4 9.19067 -79.8185 -147.363
2708 27.4972 13.9529 1.4 9.55357 -77.9687 171.462
2709 27.9972 13.9529 1.4 9.9284 -68.4969 -53.8836
2710 28.4972 13.9529 1.4 10.3138 -64.6361 85.1659
2711 28.9972 13.9529 1.4 10.7088 -250 0
2712 29.4972 13.9529 1.4 11.1122 -250 0
2713 29.9972 13.9529 1.4 11.5231 -250 0
2714 30.4972 13.9529 1.4 11.9409 -250 0
2715 -28.0028 14.4529 1.4 48.811 -250 0
2716 -27.5028 14.4529 1.4 48.3147 -250 0
2717 -27.0028 14.4529 1.4 47.8186 -250 0
2718 -26.5028 14.4529 1.4 47.3225 -250 0
2719 -26.0028 14.4529 1.4 46.8265 -250 0
2720 -25.5028 14.4529 1.4 46.3306 -250 0
2721 -25.0028 14.4529 1.4 45.8348 -250 0
2722 -24.5028 14.4529 1.4 45.339 -250 0
2723 -24.0028 14.4529 1.4 44.8434 -250 0
2724 -23.5028 14.4529 1.4 44.3479 -250 0
2725 -23.0028 14.4529 1.4 43.8524 -250 0
2726 -22.5028 14.4529 1.4 43.3571 -95.3752 -10.2272
2727 -22.0028 14.4529 1.4 42.8619 -250 0
2728 -21.5028 14.4529 1.4 42.3668 -250 0
2729 -21.0028 14.4529 1.4 41.8718 -117.431 -99.6144
2730 -20.5028 14.4529 1.4 41.3769 -143.817 19.3745
2731 -20.0028 14.4529 1.4 40.8821 -250 0
2732 -19.5028 14.4529 1.4 40.3875 -99.0224 -121.303
2733 -19.0028 14.4529 1.4 39.893 -93.4521 175.321
2734 -18.5028 14.4529 1.4 39.3987 -250 0
2735 -18.0028 14.4529 1.4 38.9045 -250 0
2736 -17.5028 14.4529 1.4 38.4104 -250 0
2737 -17.0028 14.4529 1.4 37.9165 -250 0
2738 -16.5028 14.4529 1.4 37.4228 -90.596 123.013
2739 -16.0028 14.4529 1.4 36.9292 -88.9385 136.158
2740 -15.5028 14.4529 1.4 36.4358 -250 0
2741 -15.0028 14.4529 1.4 35.9426 -250 0
2742 -14.5028 14.4529 1.4 35.4496 -250 0
2743 -14.0028 14.4529 1.4 34.9568 -250 0
2744 -13.5028 14.4529 1.4 34.4642 -250 0
2745 -13.0028 14.4529 1.4 33.9718 -250 0
2746 -12.5028 14.4529 1.4 33.4796 -250 0
2747 -12.0028 14.4529 1.4 32.9877 -250 0
2748 -11.5028 14.4529 1.4 32.496 -93.558 130.85
2749 -11.0028 14.4529 1.4 32.0046 -84.8226 61.3763
2750 -10.5028 14.4529 1.4 31.5134 -78.5077 -62.0658
2751 -10.0028 14.4529 1.4 31.0225 -78.8008 108.789
2752 -9.50282 14.4529 1.4 30.5319 -90.5943 -176.914
2753 -9.00282 14.4529 1.4 30.0417 -100.568 -18.1746
2754 -8.50282 14.4529 1.4 29.5517 -250 0
2755 -8.00282 14.4529 1.4 29.0621 -250 0
2756 -7.50282 14.4529 1.4 28.5729 -250 0
2757 -7.00282 14.4529 1.4 28.084 -85.527 115.642
2758 -6.50282 14.4529 1.4 27.5955 -84.2595 24.8558
2759 -6.00282 14.4529 1.4 27.1075 -75.6578 142.697
2760 -5.50282 14.4529 1.4 26.6199 -76.657 2.19732
2761 -5.00282 14.4529 1.4 26.1328 -76.1464 -44.3323
2762 -4.50282 14.4529 1.4 25.6461 -76.1649 37.9174
2763 -4.00282 14.4529 1.4 25.16 -250 0
2764 -3.50282 14.4529 1.4 24.6744 -250 0
2765 -3.00282 14.4529 1.4 24.1895 -95.5772 62.2076
2766 -2.50282 14.4529 1.4 23.7051 -88.8541 -72.9099
2767 -2.00282 14.4529 1.4 23.2214 -84.2376 -173.91
2768 -1.50282 14.4529 1.4 22.7385 -77.7476 124.575
2769 -1.00282 14.4529 1.4 22.2562 -82.5477 -169.701
2770 -0.50282 14.4529 1.4 21.7748 -69.9257 -14.9715
2771 -0.00282 14.4529 1.4 21.2942 -83.8862 -134.579
2772 0.49718 14.4529 1.4 20.8146 -81.0619 179.691
2773 0.99718 14.4529 1.4 20.3359 -82.5319 126.949
2774 1.49718 14.4529 1.4 19.8583 -250 0
2775 1.99718 14.4529 1.4 19.3818 -250 0
2776 2.49718 14.4529 1.4 18.9065 -88.9129 -47.8594
2777 2.99718 14.4529 1.4 18.4326 -86.7224 19.479
2778 3.49718 14.4529 1.4 17.96 -67.2258 96.6674
2779 3.99718 14.4529 1.4 17.489 -68.1256 -153.935
2780 4.49718 14.4529 1.4 17.0196 -86.1514 155.383
2781 4.99718 14.4529 1.4 16.552 -88.0954 77.9127
2782 5.49718 14.4529 1.4 16.0864 -67.3062 47.1216
2783 5.99718 14.4529 1.4 15.6228 -87.1361 66.0515
2784 6.49718 14.4529 1.4 15.1617 -88.6319 36.3785
2785 6.99718 14.4529 1.4 14.703 -250 0
2786 7.49718 14.4529 1.4 14.2471 -250 0
2787 7.99718 14.4529 1.4 13.7943 -82.7872 -130.463
2788 8.49718 14.4529 1.4 13.3449 -67.5248 -90.1832
2789 8.99718 14.4529 1.4 12.8991 -71.8011 112.128
2790 9.49718 14.4529 1.4 12.4575 -71.2464 -23.4034
2791 9.99718 14.4529 1.4 12.0205 -78.9954 -27.894
2792 10.4972 14.4529 1.4 11.5886 -88.208 -52.3174
2793 10.9972 14.4529 1.4 11.1623 -80.4481 137.439
2794 11.4972 14.4529 1.4 10.7424 -78.2519 -135.455
2795 11.9972 14.4529 1.4 10.3297 -96.5438 -73.6813
2796 12.4972 14.4529 1.4 9.92494 -73.7118 -16.1156
2797 12.9972 14.4529 1.4 9.52926 -71.7666 -36.9051
2798 13.4972 14.4529 1.4 9.1438 -58.2477 141.659
2799 13.9972 14.4529 1.4 8.76992 -75.8214 -25.4615
2800 14.4972 14.4529 1.4 8.40916 -85.4234 -53.0105
2801 14.9972 14.4529 1.4 8.06327 -78.6375 169.003
2802 15.4972 14.4529 1.4 7.73425 -79.9049 132.678
2803 15.9972 14.4529 1.4 7.42436 -76.2416 161.085
2804 16.4972 14.4529 1.4 7.13607 -76.5937 68.1818
2805 16.9972 14.4529 1.4 6.87211 -76.9123 35.1791
2806 17.4972 14.4529 1.4 6.63538 -61.5413 -74.0025
2807 17.9972 14.4529 1.4 6.42889 -50.5503 45.7135
2808 18.4972 14.4529 1.4 6.25564 -57.6947 -106.82
2809 18.9972 14.4529 1.4 6.11845 -64.936 -69.5115
2810 19.4972 14.4529 1.4 6.01978 -87.6529 -41.7753
2811 19.9972 14.4529 1.4 5.96156 -56.4351 -41.0179
2812 20.4972 14.4529 1.4 5.94496 -61.294 9.7345
2813 20.9972 14.4529 1.4 5.97034 -84.1816 -135.97
2814 21.4972 14.4529 1.4 6.03716 -75.3199 -91.4359
2815 21.9972 14.4529 1.4 6.14408 -72.7883 -138.426
2816 22.4972 14.4529 1.4 6.28905 -73.8771 -164.821
2817 22.9972 14.4529 1.4 6.46951 -62.0224 -99.917
2818 23.4972 14.4529 1.4 6.68258 -87.9193 -64.4013
2819 23.9972 14.4529 1.4 6.92526 -80.955 157.822
2820 24.4972 14.4529 1.4 7.19456 -77.9915 5.69403
2821 24.9972 14.4529 1.4 7.48759 -77.3162 -172.05
2822 25.4972 14.4529 1.4 7.80169 -73.0049 57.1522
2823 25.9972 14.4529 1.4 8.13442 -65.826 -110.277
2824 26.4972 14.4529 1.4 8.48359 -78.3586 119.661
2825 26.9972 14.4529 1.4 8.84724 -86.4656 -50.3857
2826 27.4972 14.4529 1.4 9.22366 -83.4703 -62.9151
2827 27.9972 14.4529 1.4 9.61137 -81.1771 117.485
2828 28.4972 14.4529 1.4 10.009 -68.5348 -171.309
2829 28.9972 14.4529 1.4 10.4155 -250 0
2830 29.4972 14.4529 1.4 10.8298 -250 0
2831 29.9972 14.4529 1.4 11.2511 -250 0
2832 30.4972 14.4529 1.4 11.6786 -250 0
2833 -28.0028 14.9529 1.4 48.7526 -250 0
2834 -27.5028 14.9529 1.4 48.2558 -250 0
2835 -27.0028 14.9529 1.4 47.759 -250 0
2836 -26.5028 14.9529 1.4 47.2623 -250 0
2837 -26.0028 14.9529 1.4 46.7656 -250 0
2838 -25.5028 14.9529 1.4 46.2691 -250 0
2839 -25.0028 14.9529 1.4 45.7726 -250 0
2840 -24.5028 14.9529 1.4 45.2762 -250 0
2841 -24.0028 14.9529 1.4 44.7799 -250 0
2842 -23.5028 14.9529 1.4 44.2836 -250 0
2843 -23.0028 14.9529 1.4 43.7874 -250 0
2844 -22.5028 14.9529 1.4 43.2914 -250 0
2845 -22.0028 14.9529 1.4 42.7954 -250 0
2846 -21.5028 14.9529 1.4 42.2995 -250 0
2847 -21.0028 14.9529 1.4 41.8037 -250 0
2848 -20.5028 14.9529 1.4 41.308 -250 0
2849 -20.0028 14.9529 1.4 40.8124 -250 0
2850 -19.5028 14.9529 1.4 40.317 -250 0
2851 -19.0028 14.9529 1.4 39.8216 -250 0
2852 -18.5028 14.9529 1.4 39.3263 -250 0
2853 -18.0028 14.9529 1.4 38.8312 -250 0
2854 -17.5028 14.9529 1.4 38.3362 -250 0
2855 -17.0028 14.9529 1.4 37.8414 -250 0
2856 -16.5028 14.9529 1.4 37.3466 -250 0
2857 -16.0028 14.9529 1.4 36.852 -250 0
2858 -15.5028 14.9529 1.4 36.3576 -250 0
2859 -15.0028 14.9529 1.4 35.8633 -250 0
2860 -14.5028 14.9529 1.4 35.3692 -250 0
2861 -14.0028 14.9529 1.4 34.8752 -250 0
2862 -13.5028 14.9529 1.4 34.3815 -250 0
2863 -13.0028 14.9529 1.4 33.8879 -250 0
2864 -12.5028 14.9529 1.4 33.3945 -250 0
2865 -12.0028 14.9529 1.4 32.9013 -250 0
2866 -11.5028 14.9529 1.4 32.4083 -250 0
2867 -11.0028 14.9529 1.4 31.9155 -250 0
2868 -10.5028 14.9529 1.4 31.4229 -250 0
2869 -10.0028 14.9529 1.4 30.9306 -250 0
2870 -9.50282 14.9529 1.4 30.4385 -250 0
2871 -9.00282 14.9529 1.4 29.9467 -250 0
2872 -8.50282 14.9529 1.4 29.4552 -250 0
2873 -8.00282 14.9529 1.4 28.964 -250 0
2874 -7.50282 14.9529 1.4 28.473 -250 0
2875 -7.00282 14.9529 1.4 27.9824 -77.9779 74.0857
2876 -6.50282 14.9529 1.4 27.4922 -75.9226 -67.5623
2877 -6.00282 14.9529 1.4 27.0022 -250 0
2878 -5.50282 14.9529 1.4 26.5127 -76.3602 42.0742
2879 -5.00282 14.9529 1.4 26.0236 -76.4009 121.908
2880 -4.50282 14.9529 1.4 25.5348 -250 0
2881 -4.00282 14.9529 1.4 25.0466 -250 0
2882 -3.50282 14.9529 1.4 24.5588 -250 0
2883 -3.00282 14.9529 1.4 24.0715 -250 0
2884 -2.50282 14.9529 1.4 23.5847 -250 0
2885 -2.00282 14.9529 1.4 23.0985 -250 0
2886 -1.50282 14.9529 1.4 22.6129 -250 0
2887 -1.00282 14.9529 1.4 22.1279 -250 0
2888 -0.50282 14.9529 1.4 21.6436 -88.1719 81.3028
2889 -0.00282 14.9529 1.4 21.1601 -250 0
2890 0.49718 14.9529 1.4 20.6773 -250 0
2891 0.99718 14.9529 1.4 20.1954 -250 0
2892 1.49718 14.9529 1.4 19.7144 -250 0
2893 1.99718 14.9529 1.4 19.2343 -250 0
2894 2.49718 14.9529 1.4 18.7553 -250 0
2895 2.99718 14.9529 1.4 18.2774 -250 0
2896 3.49718 14.9529 1.4 17.8007 -250 0
2897 3.99718 14.9529 1.4 17.3254 -250 0
2898 4.49718 14.9529 1.4 16.8515 -250 0
2899 4.99718 14.9529 1.4 16.3791 -250 0
2900 5.49718 14.9529 1.4 15.9084 -250 0
2901 5.99718 14.9529 1.4 15.4395 -250 0
2902 6.49718 14.9529 1.4 14.9727 -250 0
2903 6.99718 14.9529 1.4 14.508 -250 0
2904 7.49718 14.9529 1.4 14.0458 -250 0
2905 7.99718 14.9529 1.4 13.5863 -250 0
2906 8.49718 14.9529 1.4 13.1298 -250 0
2907 8.99718 14.9529 1.4 12.6765 -82.333 119.728
2908 9.49718 14.9529 1.4 12.2268 -81.46 -137.437
2909 9.99718 14.9529 1.4 11.7812 -74.8854 -165.397
2910 10.4972 14.9529 1.4 11.3402 -250 0
2911 10.9972 14.9529 1.4 10.9042 -250 0
2912 11.4972 14.9529 1.4 10.474 -250 0
2913 11.9972 14.9529 1.4 10.0502 -250 0
2914 12.4972 14.9529 1.4 9.63378 -250 0
2915 12.9972 14.9529 1.4 9.22562 -250 0
2916 13.4972 14.9529 1.4 8.82691 -74.1874 101.241
2917 13.9972 14.9529 1.4 8.439 -52.6808 -46.9743
2918 14.4972 14.9529 1.4 8.06345 -55.0177 -25.0891
2919 14.9972 14.9529 1.4 7.70205 -54.8245 -9.28992
2920 15.4972 14.9529 1.4 7.3569 -58.3558 -58.1529
2921 15.9972 14.9529 1.4 7.03039 -55.2583 158.191
2922 16.4972 14.9529 1.4 6.72523 -54.3563 52.2331
2923 16.9972 14.9529 1.4 6.44446 -65.4592 51.9128
2924 17.4972 14.9529 1.4 6.19141 -250 0
2925 17.9972 14.9529 1.4 5.96958 -250 0
2926 18.4972 14.9529 1.4 5.78258 -250 0
2927 18.9972 14.9529 1.4 5.63389 -250 0
2928 19.4972 14.9529 1.4 5.52658 -250 0
2929 19.9972 14.9529 1.4 5.4631 -250 0
2930 20.4972 14.9529 1.4 5.44498 -250 0
2931 20.9972 14.9529 1.4 5.47268 -250 0
2932 21.4972 14.9529 1.4 5.5455 -250 0
2933 21.9972 14.9529 1.4 5.66171 -250 0
2934 22.4972 14.9529 1.4 5.81871 -250 0
2935 22.9972 14.9529 1.4 6.0133 -250 0
2936 23.4972 14.9529 1.4 6.24197 -59.3537 174.084
2937 23.9972 14.9529 1.4 6.50112 -250 0
2938 24.4972 14.9529 1.4 6.78726 -250 0
2939 24.9972 14.9529 1.4 7.09713 -250 0
2940 25.4972 14.9529 1.4 7.42777 -250 0
2941 25.9972 14.9529 1.4 7.77651 -250 0
2942 26.4972 14.9529 1.4 8.14104 -250 0
2943 26.9972 14.9529 1.4 8.51932 -250 0
2944 27.4972 14.9529 1.4 8.90962 -250 0
2945 27.9972 14.9529 1.4 9.31041 -61.3565 162.81
2946 28.4972 14.9529 1.4 9.72039 -61.0118 -80.732
2947 28.9972 14.9529 1.4 10.1385 -250 0
2948 29.4972 14.9529 1.4 10.5637 -250 0
2949 29.9972 14.9529 1.4 10.9951 -250 0
2950 30.4972 14.9529 1.4 11.4322 -250 0
2951 -28.0028 15.4529 1.4 48.6993 -250 0
2952 -27.5028 15.4529 1.4 48.2019 -250 0
2953 -27.0028 15.4529 1.4 47.7046 -250 0
2954 -26.5028 15.4529 1.4 47.2073 -250 0
2955 -26.0028 15.4529 1.4 46.7101 -250 0
2956 -25.5028 15.4529 1.4 46.2129 -250 0
2957 -25.0028 15.4529 1.4 45.7158 -250 0
2958 -24.5028 15.4529 1.4 45.2188 -153.712 -17.0734
2959 -24.0028 15.4529 1.4 44.7218 -250 0
2960 -23.5028 15.4529 1.4 44.2249 -250 0
2961 -23.0028 15.4529 1.4 43.7281 -250 0
2962 -22.5028 15.4529 1.4 43.2313 -250 0
2963 -22.0028 15.4529 1.4 42.7346 -250 0
2964 -21.5028 15.4529 1.4 42.238 -250 0
2965 -21.0028 15.4529 1.4 41.7415 -250 0
2966 -20.5028 15.4529 1.4 41.2451 -250 0
2967 -20.0028 15.4529 1.4 40.7487 -250 0
2968 -19.5028 15.4529 1.4 40.2525 -250 0
2969 -19.0028 15.4529 1.4 39.7563 -250 0
2970 -18.5028 15.4529 1.4 39.2602 -250 0
2971 -18.0028 15.4529 1.4 38.7643 -250 0
2972 -17.5028 15.4529 1.4 38.2684 -250 0
2973 -17.0028 15.4529 1.4 37.7727 -250 0
2974 -16.5028 15.4529 1.4 37.277 -250 0
2975 -16.0028 15.4529 1.4 36.7815 -250 0
2976 -15.5028 15.4529 1.4 36.2861 -250 0
2977 -15.0028 15.4529 1.4 35.7908 -250 0
2978 -14.5028 15.4529 1.4 35.2957 -250 0
2979 -14.0028 15.4529 1.4 34.8007 -250 0
2980 -13.5028 15.4529 1.4 34.3058 -250 0
2981 -13.0028 15.4529 1.4 33.8111 -250 0
2982 -12.5028 15.4529 1.4 33.3166 -250 0
2983 -12.0028 15.4529 1.4 32.8222 -250 0
2984 -11.5028 15.4529 1.4 32.328 -250 0
2985 -11.0028 15.4529 1.4 31.834 -250 0
2986 -10.5028 15.4529 1.4 31.3402 -250 0
2987 -10.0028 15.4529 1.4 30.8465 -250 0
2988 -9.50282 15.4529 1.4 30.3531 -250 0
2989 -9.00282 15.4529 1.4 29.8599 -250 0
2990 -8.50282 15.4529 1.4 29.3669 -250 0
2991 -8.00282 15.4529 1.4 28.8742 -250 0
2992 -7.50282 15.4529 1.4 28.3817 -250 0
2993 -7.00282 15.4529 1.4 27.8895 -91.4152 -152.228
2994 -6.50282 15.4529 1.4 27.3975 -250 0
2995 -6.00282 15.4529 1.4 26.9059 -76.5747 127.8
2996 -5.50282 15.4529 1.4 26.4146 -76.6366 -154.688
2997 -5.00282 15.4529 1.4 25.9236 -250 0
2998 -4.50282 15.4529 1.4 25.4329 -250 0
2999 -4.00282 15.4529 1.4 24.9427 -250 0
3000 -3.50282 15.4529 1.4 24.4528 -250 0
3001 -3.00282 15.4529 1.4 23.9633 -250 0
3002 -2.50282 15.4529 1.4 23.4743 -250 0
3003 -2.00282 15.4529 1.4 22.9858 -250 0
3004 -1.50282 15.4529 1.4 22.4977 -250 0
3005 -1.00282 15.4529 1.4 22.0102 -88.7682 147.823
3006 -0.50282 15.4529 1.4 21.5233 -91.9664 86.9098
3007 -0.00282 15.4529 1.4 21.037 -250 0
3008 0.49718 15.4529 1.4 20.5513 -250 0
3009 0.99718 15.4529 1.4 20.0664 -250 0
3010 1.49718 15.4529 1.4 19.5822 -250 0
3011 1.99718 15.4529 1.4 19.0988 -250 0
3012 2.49718 15.4529 1.4 18.6163 -250 0
3013 2.99718 15.4529 1.4 18.1348 -250 0
3014 3.49718 15.4529 1.4 17.6542 -250 0
3015 3.99718 15.4529 1.4 17.1748 -250 0
3016 4.49718 15.4529 1.4 16.6966 -250 0
3017 4.99718 15.4529 1.4 16.2197 -250 0
3018 5.49718 15.4529 1.4 15.7443 -250 0
3019 5.99718 15.4529 1.4 15.2704 -250 0
3020 6.49718 15.4529 1.4 14.7982 -250 0
3021 6.99718 15.4529 1.4 14.3279 -250 0
3022 7.49718 15.4529 1.4 13.8597 -250 0
3023 7.99718 15.4529 1.4 13.3938 -250 0
3024 8.49718 15.4529 1.4 12.9304 -82.2453 43.8787
3025 8.99718 15.4529 1.4 12.4699 -68.1267 146.773
3026 9.49718 15.4529 1.4 12.0125 -72.7158 -84.7319
3027 9.99718 15.4529 1.4 11.5587 -75.3667 51.2429
3028 10.4972 15.4529 1.4 11.1088 -250 0
3029 10.9972 15.4529 1.4 10.6634 -250 0
3030 11.4972 15.4529 1.4 10.223 -250 0
3031 11.9972 15.4529 1.4 9.78839 -250 0
3032 12.4972 15.4529 1.4 9.36028 -250 0
3033 12.9972 15.4529 1.4 8.93965 -250 0
3034 13.4972 15.4529 1.4 8.52758 -250 0
3035 13.9972 15.4529 1.4 8.1254 -51.8215 124.27
3036 14.4972 15.4529 1.4 7.73463 -53.4607 -138.22
3037 14.9972 15.4529 1.4 7.35709 -53.4051 -91.1076
3038 15.4972 15.4529 1.4 6.99494 -54.4426 -89.0503
3039 15.9972 15.4529 1.4 6.65068 -57.6321 -120.61
3040 16.4972 15.4529 1.4 6.32724 -53.8198 82.3265
3041 16.9972 15.4529 1.4 6.02797 -54.2406 -23.829
3042 17.4972 15.4529 1.4 5.75663 -250 0
3043 17.9972 15.4529 1.4 5.51735 -250 0
3044 18.4972 15.4529 1.4 5.31447 -250 0
3045 18.9972 15.4529 1.4 5.15227 -250 0
3046 19.4972 15.4529 1.4 5.03471 -250 0
3047 19.9972 15.4529 1.4 4.96495 -250 0
3048 20.4972 15.4529 1.4 4.94501 -250 0
3049 20.9972 15.4529 1.4 4.97549 -250 0
3050 21.4972 15.4529 1.4 5.05548 -250 0
3051 21.9972 15.4529 1.4 5.18269 -250 0
3052 22.4972 15.4529 1.4 5.35375 -250 0
3053 22.9972 15.4529 1.4 5.56462 -250 0
3054 23.4972 15.4529 1.4 5.81097 -250 0
3055 23.9972 15.4529 1.4 6.0885 -250 0
3056 24.4972 15.4529 1.4 6.39314 -250 0
3057 24.9972 15.4529 1.4 6.7212 -250 0
3058 25.4972 15.4529 1.4 7.06944 -250 0
3059 25.9972 15.4529 1.4 7.43501 -250 0
3060 26.4972 15.4529 1.4 7.81548 -250 0
3061 26.9972 15.4529 1.4 8.20878 -250 0
3062 27.4972 15.4529 1.4 8.61316 -61.8437 -98.3016
3063 27.9972 15.4529 1.4 9.02712 -61.6817 9.56922
3064 28.4972 15.4529 1.4 9.44941 -62.1819 93.1172
3065 28.9972 15.4529 1.4 9.87895 -250 0
3066 29.4972 15.4529 1.4 10.3148 -250 0
3067 29.9972 15.4529 1.4 10.7563 -250 0
3068 30.4972 15.4529 1.4 11.2027 -250 0
3069 -28.0028 15.9529 1.4 48.6511 -250 0
3070 -27.5028 15.9529 1.4 48.1532 -250 0
3071 -27.0028 15.9529 1.4 47.6553 -250 0
3072 -26.5028 15.9529 1.4 47.1575 -250 0
3073 -26.0028 15.9529 1.4 46.6598 -250 0
3074 -25.5028 15.9529 1.4 46.1621 -154.284 -67.51
3075 -25.0028 15.9529 1.4 45.6644 -153.334 107.492
3076 -24.5028 15.9529 1.4 45.1668 -250 0
3077 -24.0028 15.9529 1.4 44.6693 -250 0
3078 -23.5028 15.9529 1.4 44.1718 -250 0
3079 -23.0028 15.9529 1.4 43.6744 -250 0
3080 -22.5028 15.9529 1.4 43.177 -250 0
3081 -22.0028 15.9529 1.4 42.6797 -250 0
3082 -21.5028 15.9529 1.4 42.1824 -250 0
3083 -21.0028 15.9529 1.4 41.6853 -250 0
3084 -20.5028 15.9529 1.4 41.1881 -250 0
3085 -20.0028 15.9529 1.4 40.6911 -250 0
3086 -19.5028 15.9529 1.4 40.1941 -250 0
3087 -19.0028 15.9529 1.4 39.6972 -250 0
3088 -18.5028 15.9529 1.4 39.2004 -250 0
3089 -18.0028 15.9529 1.4 38.7037 -250 0
3090 -17.5028 15.9529 1.4 38.207 -250 0
3091 -17.0028 15.9529 1.4 37.7105 -250 0
3092 -16.5028 15.9529 1.4 37.214 -250 0
3093 -16.0028 15.9529 1.4 36.7176 -250 0
3094 -15.5028 15.9529 1.4 36.2214 -250 0
3095 -15.0028 15.9529 1.4 35.7252 -250 0
3096 -14.5028 15.9529 1.4 35.2291 -250 0
3097 -14.0028 15.9529 1.4 34.7332 -250 0
3098 -13.5028 15.9529 1.4 34.2373 -250 0
3099 -13.0028 15.9529 1.4 33.7416 -250 0
3100 -12.5028 15.9529 1.4 33.2461 -250 0
3101 -12.0028 15.9529 1.4 32.7506 -250 0
3102 -11.5028 15.9529 1.4 32.2553 -250 0
3103 -11.0028 15.9529 1.4 31.7602 -250 0
3104 -10.5028 15.9529 1.4 31.2652 -250 0
3105 -10.0028 15.9529 1.4 30.7703 -250 0
3106 -9.50282 15.9529 1.4 30.2757 -250 0
3107 -9.00282 15.9529 1.4 29.7812 -250 0
3108 -8.50282 15.9529 1.4 29.2869 -250 0
3109 -8.00282 15.9529 1.4 28.7927 -107.477 25.3138
3110 -7.50282 15.9529 1.4 28.2988 -106.585 149.66
3111 -7.00282 15.9529 1.4 27.8052 -76.7846 129.159
3112 -6.50282 15.9529 1.4 27.3117 -76.7899 -147.113
3113 -6.00282 15.9529 1.4 26.8185 -76.8719 -71.8338
3114 -5.50282 15.9529 1.4 26.3255 -250 0
3115 -5.00282 15.9529 1.4 25.8329 -250 0
3116 -4.50282 15.9529 1.4 25.3405 -250 0
3117 -4.00282 15.9529 1.4 24.8484 -250 0
3118 -3.50282 15.9529 1.4 24.3566 -250 0
3119 -3.00282 15.9529 1.4 23.8652 -250 0
3120 -2.50282 15.9529 1.4 23.3741 -250 0
3121 -2.00282 15.9529 1.4 22.8834 -250 0
3122 -1.50282 15.9529 1.4 22.3932 -89.2193 -146.058
3123 -1.00282 15.9529 1.4 21.9033 -92.5674 152.076
3124 -0.50282 15.9529 1.4 21.414 -101.43 167.589
3125 -0.00282 15.9529 1.4 20.9251 -93.8779 145.281
3126 0.49718 15.9529 1.4 20.4368 -250 0
3127 0.99718 15.9529 1.4 19.9491 -250 0
3128 1.49718 15.9529 1.4 19.462 -250 0
3129 1.99718 15.9529 1.4 18.9755 -250 0
3130 2.49718 15.9529 1.4 18.4898 -250 0
3131 2.99718 15.9529 1.4 18.0049 -250 0
3132 3.49718 15.9529 1.4 17.5208 -250 0
3133 3.99718 15.9529 1.4 17.0376 -250 0
3134 4.49718 15.9529 1.4 16.5554 -250 0
3135 4.99718 15.9529 1.4 16.0743 -250 0
3136 5.49718 15.9529 1.4 15.5944 -250 0
3137 5.99718 15.9529 1.4 15.1159 -250 0
3138 6.49718 15.9529 1.4 14.6387 -250 0
3139 6.99718 15.9529 1.4 14.1631 -250 0
3140 7.49718 15.9529 1.4 13.6893 -250 0
3141 7.99718 15.9529 1.4 13.2174 -82.1645 -32.3272
3142 8.49718 15.9529 1.4 12.7476 -74.0422 -120.826
3143 8.99718 15.9529 1.4 12.2802 -78.1568 69.8464
3144 9.49718 15.9529 1.4 11.8155 -59.8232 134.272
3145 9.99718 15.9529 1.4 11.3538 -59.6431 -89.5614
3146 10.4972 15.9529 1.4 10.8954 -250 0
3147 10.9972 15.9529 1.4 10.4409 -250 0
3148 11.4972 15.9529 1.4 9.99076 -250 0
3149 11.9972 15.9529 1.4 9.54556 -250 0
3150 12.4972 15.9529 1.4 9.10605 -250 0
3151 12.9972 15.9529 1.4 8.67309 -74.7016 44.7297
3152 13.4972 15.9529 1.4 8.24772 -69.3971 115.322
3153 13.9972 15.9529 1.4 7.83118 -53.4651 -127.044
3154 14.4972 15.9529 1.4 7.42494 -52.6187 37.7701
3155 14.9972 15.9529 1.4 7.0308 -50.2249 137.4
3156 15.4972 15.9529 1.4 6.6509 -52.8399 -157.283
3157 15.9972 15.9529 1.4 6.28784 -53.314 -161.452
3158 16.4972 15.9529 1.4 5.94468 -55.7041 165.971
3159 16.9972 15.9529 1.4 5.62509 -53.3819 8.48592
3160 17.4972 15.9529 1.4 5.3333 -250 0
3161 17.9972 15.9529 1.4 5.07409 -250 0
3162 18.4972 15.9529 1.4 4.85271 -250 0
3163 18.9972 15.9529 1.4 4.67453 -250 0
3164 19.4972 15.9529 1.4 4.54462 -250 0
3165 19.9972 15.9529 1.4 4.46721 -250 0
3166 20.4972 15.9529 1.4 4.44504 -250 0
3167 20.9972 15.9529 1.4 4.47892 -250 0
3168 21.4972 15.9529 1.4 4.56762 -250 0
3169 21.9972 15.9529 1.4 4.70803 -250 0
3170 22.4972 15.9529 1.4 4.8957 -250 0
3171 22.9972 15.9529 1.4 5.12546 -250 0
3172 23.4972 15.9529 1.4 5.39191 -250 0
3173 23.9972 15.9529 1.4 5.68991 -250 0
3174 24.4972 15.9529 1.4 6.01477 -75.1831 -134.432
3175 24.9972 15.9529 1.4 6.36238 -250 0
3176 25.4972 15.9529 1.4 6.72921 -250 0
3177 25.9972 15.9529 1.4 7.11229 -95.3743 104.288
3178 26.4972 15.9529 1.4 7.50913 -87.5864 -131.034
3179 26.9972 15.9529 1.4 7.91766 -61.8509 -5.21944
3180 27.4972 15.9529 1.4 8.33617 -61.8866 85.4166
3181 27.9972 15.9529 1.4 8.76323 -64.6433 164.02
3182 28.4972 15.9529 1.4 9.19764 -67.4478 -135.689
3183 28.9972 15.9529 1.4 9.63841 -250 0
3184 29.4972 15.9529 1.4 10.0847 -250 0
3185 29.9972 15.9529 1.4 10.5358 -250 0
3186 30.4972 15.9529 1.4 10.9912 -250 0
3187 -28.0028 16.4529 1.4 48.6079 -250 0
3188 -27.5028 16.4529 1.4 48.1096 -250 0
3189 -27.0028 16.4529 1.4 47.6113 -250 0
3190 -26.5028 16.4529 1.4 47.113 -250 0
3191 -26.0028 16.4529 1.4 46.6148 -153.899 58.4385
3192 -25.5028 16.4529 1.4 46.1166 -153.003 -130.092
3193 -25.0028 16.4529 1.4 45.6185 -250 0
3194 -24.5028 16.4529 1.4 45.1204 -250 0
3195 -24.0028 16.4529 1.4 44.6223 -250 0
3196 -23.5028 16.4529 1.4 44.1243 -250 0
3197 -23.0028 16.4529 1.4 43.6263 -250 0
3198 -22.5028 16.4529 1.4 43.1284 -250 0
3199 -22.0028 16.4529 1.4 42.6305 -250 0
3200 -21.5028 16.4529 1.4 42.1327 -250 0
3201 -21.0028 16.4529 1.4 41.6349 -250 0
3202 -20.5028 16.4529 1.4 41.1372 -250 0
3203 -20.0028 16.4529 1.4 40.6395 -250 0
3204 -19.5028 16.4529 1.4 40.1419 -250 0
3205 -19.0028 16.4529 1.4 39.6444 -250 0
3206 -18.5028 16.4529 1.4 39.1469 -250 0
3207 -18.0028 16.4529 1.4 38.6494 -250 0
3208 -17.5028 16.4529 1.4 38.1521 -250 0
3209 -17.0028 16.4529 1.4 37.6548 -250 0
3210 -16.5028 16.4529 1.4 37.1576 -250 0
3211 -16.0028 16.4529 1.4 36.6605 -250 0
3212 -15.5028 16.4529 1.4 36.1634 -250 0
3213 -15.0028 16.4529 1.4 35.6664 -250 0
3214 -14.5028 16.4529 1.4 35.1695 -250 0
3215 -14.0028 16.4529 1.4 34.6727 -250 0
3216 -13.5028 16.4529 1.4 34.176 -250 0
3217 -13.0028 16.4529 1.4 33.6794 -250 0
3218 -12.5028 16.4529 1.4 33.1829 -250 0
3219 -12.0028 16.4529 1.4 32.6865 -250 0
3220 -11.5028 16.4529 1.4 32.1902 -250 0
3221 -11.0028 16.4529 1.4 31.6941 -126.868 -156.625
3222 -10.5028 16.4529 1.4 31.198 -93.2827 -95.9553
3223 -10.0028 16.4529 1.4 30.7021 -101.638 -129.919
3224 -9.50282 16.4529 1.4 30.2063 -250 0
3225 -9.00282 16.4529 1.4 29.7107 -250 0
3226 -8.50282 16.4529 1.4 29.2152 -107.86 128.08
3227 -8.00282 16.4529 1.4 28.7198 -106.005 -116.019
3228 -7.50282 16.4529 1.4 28.2246 -96.3618 -31.617
3229 -7.00282 16.4529 1.4 27.7296 -77.0052 -62.6256
3230 -6.50282 16.4529 1.4 27.2348 -250 0
3231 -6.00282 16.4529 1.4 26.7402 -250 0
3232 -5.50282 16.4529 1.4 26.2458 -250 0
3233 -5.00282 16.4529 1.4 25.7515 -250 0
3234 -4.50282 16.4529 1.4 25.2576 -250 0
3235 -4.00282 16.4529 1.4 24.7638 -250 0
3236 -3.50282 16.4529 1.4 24.2703 -250 0
3237 -3.00282 16.4529 1.4 23.7771 -250 0
3238 -2.50282 16.4529 1.4 23.2842 -250 0
3239 -2.00282 16.4529 1.4 22.7916 -89.5159 -80.0597
3240 -1.50282 16.4529 1.4 22.2993 -94.3044 -113.26
3241 -1.00282 16.4529 1.4 21.8074 -93.0577 -160.936
3242 -0.50282 16.4529 1.4 21.3158 -250 0
3243 -0.00282 16.4529 1.4 20.8246 -89.6988 23.9154
3244 0.49718 16.4529 1.4 20.3339 -94.6804 -115.03
3245 0.99718 16.4529 1.4 19.8437 -250 0
3246 1.49718 16.4529 1.4 19.3539 -250 0
3247 1.99718 16.4529 1.4 18.8647 -250 0
3248 2.49718 16.4529 1.4 18.376 -250 0
3249 2.99718 16.4529 1.4 17.888 -114.138 -114.87
3250 3.49718 16.4529 1.4 17.4006 -250 0
3251 3.99718 16.4529 1.4 16.914 -250 0
3252 4.49718 16.4529 1.4 16.4282 -250 0
3253 4.99718 16.4529 1.4 15.9433 -250 0
3254 5.49718 16.4529 1.4 15.4594 -250 0
3255 5.99718 16.4529 1.4 14.9765 -250 0
3256 6.49718 16.4529 1.4 14.4947 -250 0
3257 6.99718 16.4529 1.4 14.0142 -250 0
3258 7.49718 16.4529 1.4 13.5352 -250 0
3259 7.99718 16.4529 1.4 13.0577 -72.4397 6.60563
3260 8.49718 16.4529 1.4 12.582 -72.5303 114.708
3261 8.99718 16.4529 1.4 12.1082 -60.1334 -114.953
3262 9.49718 16.4529 1.4 11.6366 -85.8949 -17.5589
3263 9.99718 16.4529 1.4 11.1675 -77.787 153.092
3264 10.4972 16.4529 1.4 10.7012 -250 0
3265 10.9972 16.4529 1.4 10.2381 -250 0
3266 11.4972 16.4529 1.4 9.77858 -250 0
3267 11.9972 16.4529 1.4 9.32325 -250 0
3268 12.4972 16.4529 1.4 8.87274 -250 0
3269 12.9972 16.4529 1.4 8.4278 -69.7349 -170.268
3270 13.4972 16.4529 1.4 7.98938 -77.5876 -93.2433
3271 13.9972 16.4529 1.4 7.55861 -61.2022 110.147
3272 14.4972 16.4529 1.4 7.13687 -54.5235 61.5404
3273 14.9972 16.4529 1.4 6.72587 -52.5108 -91.4973
3274 15.4972 16.4529 1.4 6.3277 -50.2361 45.8058
3275 15.9972 16.4529 1.4 5.94493 -50.623 128.476
3276 16.4972 16.4529 1.4 5.58073 -54.1101 117.344
3277 16.9972 16.4529 1.4 5.23898 -57.3473 101.476
3278 17.4972 16.4529 1.4 4.92436 -250 0
3279 17.9972 16.4529 1.4 4.64238 -250 0
3280 18.4972 16.4529 1.4 4.39933 -250 0
3281 18.9972 16.4529 1.4 4.20196 -250 0
3282 19.4972 16.4529 1.4 4.05695 -250 0
3283 19.9972 16.4529 1.4 3.97004 -250 0
3284 20.4972 16.4529 1.4 3.94508 -250 0
3285 20.9972 16.4529 1.4 3.98322 -66.0787 -78.0997
3286 21.4972 16.4529 1.4 4.0827 -54.0982 173.873
3287 21.9972 16.4529 1.4 4.2392 -58.077 -87.3954
3288 22.4972 16.4529 1.4 4.44671 -67.1153 80.5127
3289 22.9972 16.4529 1.4 4.69847 -57.8178 -135.839
3290 23.4972 16.4529 1.4 4.98778 -56.7194 149.824
3291 23.9972 16.4529 1.4 5.30852 -52.0494 -106.436
3292 24.4972 16.4529 1.4 5.65533 -63.8118 144.86
3293 24.9972 16.4529 1.4 6.02371 -75.3931 1.30142
3294 25.4972 16.4529 1.4 6.40995 -76.0205 167.64
3295 25.9972 16.4529 1.4 6.81101 -60.8022 -21.6774
3296 26.4972 16.4529 1.4 7.22442 -61.3473 72.458
3297 26.9972 16.4529 1.4 7.64818 -65.2079 164.988
3298 27.4972 16.4529 1.4 8.08066 -62.1935 -120.889
3299 27.9972 16.4529 1.4 8.52053 -66.6578 -62.1634
3300 28.4972 16.4529 1.4 8.96671 -56.1328 -35.6141
3301 28.9972 16.4529 1.4 9.41829 -250 0
3302 29.4972 16.4529 1.4 9.87454 -250 0
3303 29.9972 16.4529 1.4 10.3348 -250 0
3304 30.4972 16.4529 1.4 10.7987 -250 0
3305 -28.0028 16.9529 1.4 48.5699 -250 0
3306 -27.5028 16.9529 1.4 48.0712 -250 0
3307 -27.0028 16.9529 1.4 47.5725 -154.442 8.49203
3308 -26.5028 16.9529 1.4 47.0738 -153.557 -177.699
3309 -26.0028 16.9529 1.4 46.5752 -250 0
3310 -25.5028 16.9529 1.4 46.0766 -147.607 24.5062
3311 -25.0028 16.9529 1.4 45.578 -146.414 117.033
3312 -24.5028 16.9529 1.4 45.0794 -150.501 84.7007
3313 -24.0028 16.9529 1.4 44.5809 -250 0
3314 -23.5028 16.9529 1.4 44.0824 -250 0
3315 -23.0028 16.9529 1.4 43.584 -250 0
3316 -22.5028 16.9529 1.4 43.0855 -250 0
3317 -22.0028 16.9529 1.4 42.5872 -250 0
3318 -21.5028 16.9529 1.4 42.0888 -250 0
3319 -21.0028 16.9529 1.4 41.5905 -250 0
3320 -20.5028 16.9529 1.4 41.0923 -250 0
3321 -20.0028 16.9529 1.4 40.594 -250 0
3322 -19.5028 16.9529 1.4 40.0959 -250 0
3323 -19.0028 16.9529 1.4 39.5977 -250 0
3324 -18.5028 16.9529 1.4 39.0997 -250 0
3325 -18.0028 16.9529 1.4 38.6016 -250 0
3326 -17.5028 16.9529 1.4 38.1036 -250 0
3327 -17.0028 16.9529 1.4 37.6057 -250 0
3328 -16.5028 16.9529 1.4 37.1078 -250 0
3329 -16.0028 16.9529 1.4 36.61 -250 0
3330 -15.5028 16.9529 1.4 36.1123 -250 0
3331 -15.0028 16.9529 1.4 35.6146 -250 0
3332 -14.5028 16.9529 1.4 35.117 -250 0
3333 -14.0028 16.9529 1.4 34.6194 -250 0
3334 -13.5028 16.9529 1.4 34.1219 -120.746 -161.768
3335 -13.0028 16.9529 1.4 33.6245 -250 0
3336 -12.5028 16.9529 1.4 33.1272 -250 0
3337 -12.0028 16.9529 1.4 32.63 -127.078 140.953
3338 -11.5028 16.9529 1.4 32.1328 -113.076 86.1562
3339 -11.0028 16.9529 1.4 31.6357 -100.074 -0.241878
3340 -10.5028 16.9529 1.4 31.1387 -105.075 -55.7567
3341 -10.0028 16.9529 1.4 30.6419 -107.136 145.414
3342 -9.50282 16.9529 1.4 30.1451 -106.97 35.8983
3343 -9.00282 16.9529 1.4 29.6484 -98.6007 -162.381
3344 -8.50282 16.9529 1.4 29.1519 -96.8442 -22.3568
3345 -8.00282 16.9529 1.4 28.6554 -93.9479 41.5806
3346 -7.50282 16.9529 1.4 28.1591 -94.4615 111.998
3347 -7.00282 16.9529 1.4 27.6629 -250 0
3348 -6.50282 16.9529 1.4 27.1669 -250 0
3349 -6.00282 16.9529 1.4 26.671 -250 0
3350 -5.50282 16.9529 1.4 26.1753 -250 0
3351 -5.00282 16.9529 1.4 25.6797 -250 0
3352 -4.50282 16.9529 1.4 25.1843 -250 0
3353 -4.00282 16.9529 1.4 24.6891 -250 0
3354 -3.50282 16.9529 1.4 24.1941 -250 0
3355 -3.00282 16.9529 1.4 23.6993 -250 0
3356 -2.50282 16.9529 1.4 23.2047 -89.6656 -13.9018
3357 -2.00282 16.9529 1.4 22.7104 -93.6859 -63.5386
3358 -1.50282 16.9529 1.4 22.2163 -94.4884 -84.8027
3359 -1.00282 16.9529 1.4 21.7225 -105.044 -93.3694
3360 -0.50282 16.9529 1.4 21.229 -101.497 145.939
3361 -0.00282 16.9529 1.4 20.7357 -107.262 108.152
3362 0.49718 16.9529 1.4 20.2429 -89.5375 122.685
3363 0.99718 16.9529 1.4 19.7503 -98.1676 -41.0429
3364 1.49718 16.9529 1.4 19.2582 -101.588 158.011
3365 1.99718 16.9529 1.4 18.7665 -250 0
3366 2.49718 16.9529 1.4 18.2752 -96.129 41.7252
3367 2.99718 16.9529 1.4 17.7844 -92.6397 123.18
3368 3.49718 16.9529 1.4 17.2942 -250 0
3369 3.99718 16.9529 1.4 16.8045 -250 0
3370 4.49718 16.9529 1.4 16.3154 -250 0
3371 4.99718 16.9529 1.4 15.827 -250 0
3372 5.49718 16.9529 1.4 15.3394 -250 0
3373 5.99718 16.9529 1.4 14.8526 -250 0
3374 6.49718 16.9529 1.4 14.3667 -250 0
3375 6.99718 16.9529 1.4 13.8818 -77.0129 -19.0462
3376 7.49718 16.9529 1.4 13.398 -85.3897 113.714
3377 7.99718 16.9529 1.4 12.9155 -62.2099 -160.144
3378 8.49718 16.9529 1.4 12.4343 -60.5051 -19.4939
3379 8.99718 16.9529 1.4 11.9547 -78.2142 91.5297
3380 9.49718 16.9529 1.4 11.4768 -77.7419 -5.04658
3381 9.99718 16.9529 1.4 11.0009 -72.1944 -167.202
3382 10.4972 16.9529 1.4 10.5272 -71.9198 148.509
3383 10.9972 16.9529 1.4 10.056 -75.3053 -167.274
3384 11.4972 16.9529 1.4 9.5878 -250 0
3385 11.9972 16.9529 1.4 9.12296 -66.3893 161.559
3386 12.4972 16.9529 1.4 8.66203 -74.3815 -137.487
3387 12.9972 16.9529 1.4 8.20567 -63.1297 90.0566
3388 13.4972 16.9529 1.4 7.75471 -70.2678 -63.5409
3389 13.9972 16.9529 1.4 7.31012 -68.5431 161.93
3390 14.4972 16.9529 1.4 6.87315 -66.5888 -8.32339
3391 14.9972 16.9529 1.4 6.44536 -62.1149 -114.476
3392 15.4972 16.9529 1.4 6.02868 -58.2568 171.437
3393 15.9972 16.9529 1.4 5.6256 -49.2803 -46.4692
3394 16.4972 16.9529 1.4 5.23926 -48.8401 48.5491
3395 16.9972 16.9529 1.4 4.87362 -51.7347 63.7177
3396 17.4972 16.9529 1.4 4.53372 -250 0
3397 17.9972 16.9529 1.4 4.22575 -250 0
3398 18.4972 16.9529 1.4 3.95719 -250 0
3399 18.9972 16.9529 1.4 3.73654 -250 0
3400 19.4972 16.9529 1.4 3.57269 -250 0
3401 19.9972 16.9529 1.4 3.47369 -250 0
3402 20.4972 16.9529 1.4 3.44513 -250 0
3403 20.9972 16.9529 1.4 3.48874 -54.9162 123.56
3404 21.4972 16.9529 1.4 3.6019 -53.88 137.442
3405 21.9972 16.9529 1.4 3.77837 -55.4347 176.199
3406 22.4972 16.9529 1.4 4.0098 -51.2835 178.439
3407 22.9972 16.9529 1.4 4.28729 -47.9909 34.5559
3408 23.4972 16.9529 1.4 4.60253 -50.1928 147.511
3409 23.9972 16.9529 1.4 4.9483 -50.9886 168.714
3410 24.4972 16.9529 1.4 5.31865 -69.3635 140.414
3411 24.9972 16.9529 1.4 5.7088 -61.2486 -11.575
3412 25.4972 16.9529 1.4 6.11496 -58.965 78.7201
3413 25.9972 16.9529 1.4 6.53415 -59.4536 -161.426
3414 26.4972 16.9529 1.4 6.96402 -59.0853 -142.335
3415 26.9972 16.9529 1.4 7.4027 -69.5711 -78.119
3416 27.4972 16.9529 1.4 7.84872 -58.2525 30.3377
3417 27.9972 16.9529 1.4 8.30089 -62.1305 -132.057
3418 28.4972 16.9529 1.4 8.75826 -58.999 5.04708
3419 28.9972 16.9529 1.4 9.22006 -250 0
3420 29.4972 16.9529 1.4 9.68565 -250 0
3421 29.9972 16.9529 1.4 10.1545 -250 0
3422 30.4972 16.9529 1.4 10.6262 -250 0
3423 -28.0028 17.4529 1.4 48.537 -250 0
3424 -27.5028 17.4529 1.4 48.038 -154.093 133.704
3425 -27.0028 17.4529 1.4 47.5389 -121.014 -98.7423
3426 -26.5028 17.4529 1.4 47.0399 -149.726 111.394
3427 -26.0028 17.4529 1.4 46.5409 -142.846 -157.534
3428 -25.5028 17.4529 1.4 46.0419 -250 0
3429 -25.0028 17.4529 1.4 45.5429 -250 0
3430 -24.5028 17.4529 1.4 45.044 -250 0
3431 -24.0028 17.4529 1.4 44.5451 -250 0
3432 -23.5028 17.4529 1.4 44.0462 -250 0
3433 -23.0028 17.4529 1.4 43.5473 -250 0
3434 -22.5028 17.4529 1.4 43.0484 -250 0
3435 -22.0028 17.4529 1.4 42.5496 -250 0
3436 -21.5028 17.4529 1.4 42.0508 -250 0
3437 -21.0028 17.4529 1.4 41.5521 -250 0
3438 -20.5028 17.4529 1.4 41.0534 -250 0
3439 -20.0028 17.4529 1.4 40.5547 -250 0
3440 -19.5028 17.4529 1.4 40.056 -250 0
3441 -19.0028 17.4529 1.4 39.5574 -250 0
3442 -18.5028 17.4529 1.4 39.0588 -153.253 3.46016
3443 -18.0028 17.4529 1.4 38.5602 -153.515 -23.8847
3444 -17.5028 17.4529 1.4 38.0617 -153.802 -53.1488
3445 -17.0028 17.4529 1.4 37.5632 -250 0
3446 -16.5028 17.4529 1.4 37.0648 -250 0
3447 -16.0028 17.4529 1.4 36.5664 -250 0
3448 -15.5028 17.4529 1.4 36.068 -250 0
3449 -15.0028 17.4529 1.4 35.5697 -250 0
3450 -14.5028 17.4529 1.4 35.0715 -250 0
3451 -14.0028 17.4529 1.4 34.5732 -250 0
3452 -13.5028 17.4529 1.4 34.0751 -116.106 -80.9308
3453 -13.0028 17.4529 1.4 33.577 -116.81 -160.732
3454 -12.5028 17.4529 1.4 33.0789 -115.821 -14.6214
3455 -12.0028 17.4529 1.4 32.581 -94.9299 -34.824
3456 -11.5028 17.4529 1.4 32.083 -121.12 -137.209
3457 -11.0028 17.4529 1.4 31.5852 -123.054 27.4264
3458 -10.5028 17.4529 1.4 31.0874 -250 0
3459 -10.0028 17.4529 1.4 30.5897 -108.114 -159.609
3460 -9.50282 17.4529 1.4 30.092 -96.3553 -96.5601
3461 -9.00282 17.4529 1.4 29.5945 -96.6011 46.8752
3462 -8.50282 17.4529 1.4 29.097 -95.1269 122.615
3463 -8.00282 17.4529 1.4 28.5996 -94.4244 167.034
3464 -7.50282 17.4529 1.4 28.1023 -81.7624 164.237
3465 -7.00282 17.4529 1.4 27.6051 -250 0
3466 -6.50282 17.4529 1.4 27.108 -250 0
3467 -6.00282 17.4529 1.4 26.611 -250 0
3468 -5.50282 17.4529 1.4 26.1142 -250 0
3469 -5.00282 17.4529 1.4 25.6174 -250 0
3470 -4.50282 17.4529 1.4 25.1208 -250 0
3471 -4.00282 17.4529 1.4 24.6243 -250 0
3472 -3.50282 17.4529 1.4 24.128 -96.8462 -153.864
3473 -3.00282 17.4529 1.4 23.6318 -89.6904 52.6389
3474 -2.50282 17.4529 1.4 23.1358 -94.0388 -16.7088
3475 -2.00282 17.4529 1.4 22.6399 -97.4793 -28.6442
3476 -1.50282 17.4529 1.4 22.1443 -100.952 71.0838
3477 -1.00282 17.4529 1.4 21.6488 -250 0
3478 -0.50282 17.4529 1.4 21.1536 -250 0
3479 -0.00282 17.4529 1.4 20.6586 -98.2233 -45.8413
3480 0.49718 17.4529 1.4 20.1638 -100.386 -108.355
3481 0.99718 17.4529 1.4 19.6693 -93.3279 -153.577
3482 1.49718 17.4529 1.4 19.1751 -88.4374 64.5099
3483 1.99718 17.4529 1.4 18.6812 -91.9914 136.149
3484 2.49718 17.4529 1.4 18.1876 -90.9053 -175.959
3485 2.99718 17.4529 1.4 17.6944 -74.8466 -124.371
3486 3.49718 17.4529 1.4 17.2015 -250 0
3487 3.99718 17.4529 1.4 16.7091 -250 0
3488 4.49718 17.4529 1.4 16.2172 -250 0
3489 4.99718 17.4529 1.4 15.7258 -250 0
3490 5.49718 17.4529 1.4 15.2349 -250 0
3491 5.99718 17.4529 1.4 14.7447 -250 0
3492 6.49718 17.4529 1.4 14.2551 -250 0
3493 6.99718 17.4529 1.4 13.7663 -70.8988 174.466
3494 7.49718 17.4529 1.4 13.2783 -59.6933 -58.1407
3495 7.99718 17.4529 1.4 12.7912 -67.9125 21.4439
3496 8.49718 17.4529 1.4 12.3052 -86.9576 126.046
3497 8.99718 17.4529 1.4 11.8203 -72.7067 158.908
3498 9.49718 17.4529 1.4 11.3367 -80.2571 154.273
3499 9.99718 17.4529 1.4 10.8547 -81.3407 -179.011
3500 10.4972 17.4529 1.4 10.3743 -63.6458 -169.637
3501 10.9972 17.4529 1.4 9.8959 -66.9021 125.651
3502 11.4972 17.4529 1.4 9.41972 -66.02 165.389
3503 11.9972 17.4529 1.4 8.94615 -66.3016 67.3378
3504 12.4972 17.4529 1.4 8.47561 -63.6599 100.002
3505 12.9972 17.4529 1.4 8.00864 -61.8425 92.9733
3506 13.4972 17.4529 1.4 7.54591 -72.2395 -138.026
3507 13.9972 17.4529 1.4 7.08824 -70.8485 -138.272
3508 14.4972 17.4529 1.4 6.63668 -75.771 98.0109
3509 14.9972 17.4529 1.4 6.19257 -64.6485 -154.23
3510 15.4972 17.4529 1.4 5.75763 -59.7384 -72.9437
3511 15.9972 17.4529 1.4 5.33411 -54.1542 -86.6967
3512 16.4972 17.4529 1.4 4.92494 -50.4396 -138.917
3513 16.9972 17.4529 1.4 4.53403 -46.4869 -44.7881
3514 17.4972 17.4529 1.4 4.16652 -250 0
3515 17.9972 17.4529 1.4 3.82913 -250 0
3516 18.4972 17.4529 1.4 3.53053 -250 0
3517 18.9972 17.4529 1.4 3.28131 -250 0
3518 19.4972 17.4529 1.4 3.09345 -250 0
3519 19.9972 17.4529 1.4 2.97856 -250 0
3520 20.4972 17.4529 1.4 2.9452 -250 0
3521 20.9972 17.4529 1.4 2.99609 -82.0828 40.0716
3522 21.4972 17.4529 1.4 3.12713 -57.7693 -52.0998
3523 21.9972 17.4529 1.4 3.32887 -63.0251 15.8733
3524 22.4972 17.4529 1.4 3.58939 -55.5784 166.174
3525 22.9972 17.4529 1.4 3.89694 -46.1741 94.2379
3526 23.4972 17.4529 1.4 4.24129 -45.134 148.044
3527 23.9972 17.4529 1.4 4.61421 -48.2842 99.3746
3528 24.4972 17.4529 1.4 5.00932 -65.0791 178.177
3529 24.9972 17.4529 1.4 5.42178 -57.003 -171.204
3530 25.4972 17.4529 1.4 5.84791 -64.2802 176.555
3531 25.9972 17.4529 1.4 6.28494 -74.6205 -89.6048
3532 26.4972 17.4529 1.4 6.73074 -60.2035 71.4959
3533 26.9972 17.4529 1.4 7.18368 -55.9597 -80.3777
3534 27.4972 17.4529 1.4 7.64249 -59.1744 122.508
3535 27.9972 17.4529 1.4 8.10617 -57.1473 -103.734
3536 28.4972 17.4529 1.4 8.57394 -72.0355 112.981
3537 28.9972 17.4529 1.4 9.04515 -250 0
3538 29.4972 17.4529 1.4 9.5193 -250 0
3539 29.9972 17.4529 1.4 9.99598 -250 0
3540 30.4972 17.4529 1.4 10.4748 -250 0
3541 -28.0028 17.9529 1.4 48.5093 -120.524 -157.658
3542 -27.5028 17.9529 1.4 48.0099 -250 0
3543 -27.0028 17.9529 1.4 47.5106 -250 0
3544 -26.5028 17.9529 1.4 47.0112 -250 0
3545 -26.0028 17.9529 1.4 46.5119 -250 0
3546 -25.5028 17.9529 1.4 46.0126 -250 0
3547 -25.0028 17.9529 1.4 45.5133 -250 0
3548 -24.5028 17.9529 1.4 45.014 -250 0
3549 -24.0028 17.9529 1.4 44.5148 -250 0
3550 -23.5028 17.9529 1.4 44.0156 -250 0
3551 -23.0028 17.9529 1.4 43.5163 -121.043 90.6787
3552 -22.5028 17.9529 1.4 43.0171 -250 0
3553 -22.0028 17.9529 1.4 42.518 -250 0
3554 -21.5028 17.9529 1.4 42.0188 -250 0
3555 -21.0028 17.9529 1.4 41.5196 -250 0
3556 -20.5028 17.9529 1.4 41.0205 -250 0
3557 -20.0028 17.9529 1.4 40.5214 -153.638 12.7344
3558 -19.5028 17.9529 1.4 40.0223 -153.892 -15.0841
3559 -19.0028 17.9529 1.4 39.5233 -154.168 -44.7476
3560 -18.5028 17.9529 1.4 39.0243 -154.469 -76.3344
3561 -18.0028 17.9529 1.4 38.5253 -154.799 -109.928
3562 -17.5028 17.9529 1.4 38.0263 -155.16 -145.616
3563 -17.0028 17.9529 1.4 37.5273 -250 0
3564 -16.5028 17.9529 1.4 37.0284 -250 0
3565 -16.0028 17.9529 1.4 36.5295 -250 0
3566 -15.5028 17.9529 1.4 36.0306 -250 0
3567 -15.0028 17.9529 1.4 35.5318 -250 0
3568 -14.5028 17.9529 1.4 35.033 -250 0
3569 -14.0028 17.9529 1.4 34.5343 -250 0
3570 -13.5028 17.9529 1.4 34.0355 -104.181 16.7367
3571 -13.0028 17.9529 1.4 33.5368 -90.6066 -73.2563
3572 -12.5028 17.9529 1.4 33.0382 -103.13 149.482
3573 -12.0028 17.9529 1.4 32.5396 -110.409 -79.2894
3574 -11.5028 17.9529 1.4 32.041 -115.37 -116.064
3575 -11.0028 17.9529 1.4 31.5425 -116.329 -74.435
3576 -10.5028 17.9529 1.4 31.044 -117.514 -34.6804
3577 -10.0028 17.9529 1.4 30.5456 -106.247 55.3647
3578 -9.50282 17.9529 1.4 30.0472 -96.4521 154.473
3579 -9.00282 17.9529 1.4 29.5489 -93.3672 -140.898
3580 -8.50282 17.9529 1.4 29.0507 -93.7283 -42.915
3581 -8.00282 17.9529 1.4 28.5525 -80.6312 -95.2415
3582 -7.50282 17.9529 1.4 28.0543 -96.7211 -83.0847
3583 -7.00282 17.9529 1.4 27.5563 -250 0
3584 -6.50282 17.9529 1.4 27.0583 -250 0
3585 -6.00282 17.9529 1.4 26.5604 -250 0
3586 -5.50282 17.9529 1.4 26.0625 -250 0
3587 -5.00282 17.9529 1.4 25.5648 -250 0
3588 -4.50282 17.9529 1.4 25.0671 -250 0
3589 -4.00282 17.9529 1.4 24.5695 -250 0
3590 -3.50282 17.9529 1.4 24.0721 -87.4872 120.432
3591 -3.00282 17.9529 1.4 23.5747 -83.5971 72.6667
3592 -2.50282 17.9529 1.4 23.0775 -91.6483 51.1377
3593 -2.00282 17.9529 1.4 22.5803 -250 0
3594 -1.50282 17.9529 1.4 22.0834 -250 0
3595 -1.00282 17.9529 1.4 21.5865 -250 0
3596 -0.50282 17.9529 1.4 21.0898 -250 0
3597 -0.00282 17.9529 1.4 20.5932 -94.8959 25.6145
3598 0.49718 17.9529 1.4 20.0969 -95.0862 0.328481
3599 0.99718 17.9529 1.4 19.6007 -95.3422 -31.1136
3600 1.49718 17.9529 1.4 19.1047 -87.3094 -83.8513
3601 1.99718 17.9529 1.4 18.6089 -74.2878 -71.252
3602 2.49718 17.9529 1.4 18.1134 -75.1595 -62.3322
3603 2.99718 17.9529 1.4 17.6181 -90.1798 152.461
3604 3.49718 17.9529 1.4 17.123 -250 0
3605 3.99718 17.9529 1.4 16.6283 -250 0
3606 4.49718 17.9529 1.4 16.1339 -250 0
3607 4.99718 17.9529 1.4 15.6399 -250 0
3608 5.49718 17.9529 1.4 15.1462 -250 0
3609 5.99718 17.9529 1.4 14.653 -250 0
3610 6.49718 17.9529 1.4 14.1602 -250 0
3611 6.99718 17.9529 1.4 13.668 -58.7842 0.849619
3612 7.49718 17.9529 1.4 13.1764 -63.9806 -111.839
3613 7.99718 17.9529 1.4 12.6854 -69.5644 -125.521
3614 8.49718 17.9529 1.4 12.1952 -73.0352 -76.268
3615 8.99718 17.9529 1.4 11.7057 -70.233 -26.9612
3616 9.49718 17.9529 1.4 11.2173 -75.7006 13.4701
3617 9.99718 17.9529 1.4 10.7298 -68.4268 47.2664
3618 10.4972 17.9529 1.4 10.2436 -62.5597 -164.486
3619 10.9972 17.9529 1.4 9.75879 -60.0077 173.667
3620 11.4972 17.9529 1.4 9.27558 -63.3266 134.254
3621 11.9972 17.9529 1.4 8.79425 -61.3589 175.428
3622 12.4972 17.9529 1.4 8.31512 -68.9314 -108.563
3623 12.9972 17.9529 1.4 7.8386 -70.6335 -0.446491
3624 13.4972 17.9529 1.4 7.36519 -69.3711 32.3182
3625 13.9972 17.9529 1.4 6.89554 -65.9017 -68.4934
3626 14.4972 17.9529 1.4 6.43046 -67.5419 124.542
3627 14.9972 17.9529 1.4 5.97103 -81.7576 -150.632
3628 15.4972 17.9529 1.4 5.51866 -56.9445 122.317
3629 15.9972 17.9529 1.4 5.07523 -62.6831 164.714
3630 16.4972 17.9529 1.4 4.64331 -56.6594 -107.85
3631 16.9972 17.9529 1.4 4.22643 -50.1374 129.914
3632 17.4972 17.9529 1.4 3.82951 -250 0
3633 17.9972 17.9529 1.4 3.45941 -250 0
3634 18.4972 17.9529 1.4 3.12568 -250 0
3635 18.9972 17.9529 1.4 2.84118 -250 0
3636 19.4972 17.9529 1.4 2.62196 -250 0
3637 19.9972 17.9529 1.4 2.48537 -250 0
3638 20.4972 17.9529 1.4 2.44529 -250 0
3639 20.9972 17.9529 1.4 2.50636 -51.6003 92.0569
3640 21.4972 17.9529 1.4 2.66162 -49.2175 130.2
3641 21.9972 17.9529 1.4 2.89596 -46.4426 178.027
3642 22.4972 17.9529 1.4 3.19202 -46.491 34.5286
3643 22.9972 17.9529 1.4 3.53432 -48.2528 35.3206
3644 23.4972 17.9529 1.4 3.91073 -49.4306 -9.41067
3645 23.9972 17.9529 1.4 4.31233 -50.3365 -176.061
3646 24.4972 17.9529 1.4 4.73271 -59.7012 -149.655
3647 24.9972 17.9529 1.4 5.1673 -63.0163 -113.277
3648 25.4972 17.9529 1.4 5.61278 -60.5484 177.587
3649 25.9972 17.9529 1.4 6.06677 -57.638 -120.759
3650 26.4972 17.9529 1.4 6.52749 -48.5142 166.381
3651 26.9972 17.9529 1.4 6.9936 -52.4646 -167.711
3652 27.4972 17.9529 1.4 7.46411 -54.9487 162.047
3653 27.9972 17.9529 1.4 7.93822 -50.0029 -165.388
3654 28.4972 17.9529 1.4 8.41532 -56.0915 -97.4905
3655 28.9972 17.9529 1.4 8.89494 -70.4731 -66.8162
3656 29.4972 17.9529 1.4 9.3767 -63.8122 -17.2488
3657 29.9972 17.9529 1.4 9.86026 -60.2123 -13.4575
3658 30.4972 17.9529 1.4 10.3454 -58.5624 -18.6286
3659 -28.0028 18.4529 1.4 48.4866 -250 0
3660 -27.5028 18.4529 1.4 47.987 -250 0
3661 -27.0028 18.4529 1.4 47.4874 -250 0
3662 -26.5028 18.4529 1.4 46.9879 -250 0
3663 -26.0028 18.4529 1.4 46.4883 -250 0
3664 -25.5028 18.4529 1.4 45.9887 -250 0
3665 -25.0028 18.4529 1.4 45.4892 -250 0
3666 -24.5028 18.4529 1.4 44.9897 -250 0
3667 -24.0028 18.4529 1.4 44.4901 -250 0
3668 -23.5028 18.4529 1.4 43.9906 -250 0
3669 -23.0028 18.4529 1.4 43.4911 -250 0
3670 -22.5028 18.4529 1.4 42.9916 -250 0
3671 -22.0028 18.4529 1.4 42.4921 -250 0
3672 -21.5028 18.4529 1.4 41.9927 -123.179 99.1424
3673 -21.0028 18.4529 1.4 41.4932 -123.192 112.939
3674 -20.5028 18.4529 1.4 40.9938 -154.518 -36.4046
3675 -20.0028 18.4529 1.4 40.4943 -154.808 -68.2819
3676 -19.5028 18.4529 1.4 39.9949 -155.124 -102.084
3677 -19.0028 18.4529 1.4 39.4955 -155.468 -137.891
3678 -18.5028 18.4529 1.4 38.9961 -250 0
3679 -18.0028 18.4529 1.4 38.4968 -250 0
3680 -17.5028 18.4529 1.4 37.9974 -250 0
3681 -17.0028 18.4529 1.4 37.4981 -250 0
3682 -16.5028 18.4529 1.4 36.9988 -250 0
3683 -16.0028 18.4529 1.4 36.4995 -250 0
3684 -15.5028 18.4529 1.4 36.0002 -250 0
3685 -15.0028 18.4529 1.4 35.5009 -250 0
3686 -14.5028 18.4529 1.4 35.0017 -250 0
3687 -14.0028 18.4529 1.4 34.5025 -250 0
3688 -13.5028 18.4529 1.4 34.0033 -121.373 -178.872
3689 -13.0028 18.4529 1.4 33.5041 -119.56 -41.1928
3690 -12.5028 18.4529 1.4 33.005 -115.295 -35.6549
3691 -12.0028 18.4529 1.4 32.5058 -114.272 139.328
3692 -11.5028 18.4529 1.4 32.0067 -107.811 -158.474
3693 -11.0028 18.4529 1.4 31.5077 -105.887 -139.086
3694 -10.5028 18.4529 1.4 31.0087 -109.912 -85.8739
3695 -10.0028 18.4529 1.4 30.5097 -93.1688 -121.41
3696 -9.50282 18.4529 1.4 30.0107 -88.6824 -33.0962
3697 -9.00282 18.4529 1.4 29.5118 -77.6635 -51.0442
3698 -8.50282 18.4529 1.4 29.0129 -78.4577 23.2278
3699 -8.00282 18.4529 1.4 28.514 -250 0
3700 -7.50282 18.4529 1.4 28.0152 -250 0
3701 -7.00282 18.4529 1.4 27.5164 -250 0
3702 -6.50282 18.4529 1.4 27.0177 -250 0
3703 -6.00282 18.4529 1.4 26.519 -250 0
3704 -5.50282 18.4529 1.4 26.0204 -250 0
3705 -5.00282 18.4529 1.4 25.5218 -250 0
3706 -4.50282 18.4529 1.4 25.0233 -250 0
3707 -4.00282 18.4529 1.4 24.5248 -250 0
3708 -3.50282 18.4529 1.4 24.0264 -90.9791 129.411
3709 -3.00282 18.4529 1.4 23.5281 -90.185 110.723
3710 -2.50282 18.4529 1.4 23.0299 -88.4801 -168.01
3711 -2.00282 18.4529 1.4 22.5317 -95.5889 -48.5927
3712 -1.50282 18.4529 1.4 22.0336 -103.616 35.4115
3713 -1.00282 18.4529 1.4 21.5356 -250 0
3714 -0.50282 18.4529 1.4 21.0377 -250 0
3715 -0.00282 18.4529 1.4 20.5399 -92.376 15.7088
3716 0.49718 18.4529 1.4 20.0422 -91.8257 10.5783
3717 0.99718 18.4529 1.4 19.5446 -85.8364 -10.4419
3718 1.49718 18.4529 1.4 19.0472 -72.6716 3.1691
3719 1.99718 18.4529 1.4 18.5498 -73.4282 -4.69713
3720 2.49718 18.4529 1.4 18.0527 -81.7342 -90.1909
3721 2.99718 18.4529 1.4 17.5557 -90.6602 -126.123
3722 3.49718 18.4529 1.4 17.0588 -250 0
3723 3.99718 18.4529 1.4 16.5622 -250 0
3724 4.49718 18.4529 1.4 16.0657 -250 0
3725 4.99718 18.4529 1.4 15.5695 -250 0
3726 5.49718 18.4529 1.4 15.0736 -250 0
3727 5.99718 18.4529 1.4 14.5779 -250 0
3728 6.49718 18.4529 1.4 14.0825 -250 0
3729 6.99718 18.4529 1.4 13.5875 -71.9151 -39.0038
3730 7.49718 18.4529 1.4 13.0928 -75.0667 143.095
3731 7.99718 18.4529 1.4 12.5986 -71.0507 -31.9541
3732 8.49718 18.4529 1.4 12.1049 -74.1448 -103.7
3733 8.99718 18.4529 1.4 11.6116 -69.2901 -118.473
3734 9.49718 18.4529 1.4 11.119 -68.683 167.074
3735 9.99718 18.4529 1.4 10.6271 -68.3135 169.475
3736 10.4972 18.4529 1.4 10.1359 -62.5406 -163.125
3737 10.9972 18.4529 1.4 9.64569 -62.2673 -145.274
3738 11.4972 18.4529 1.4 9.15651 -58.287 -137.961
3739 11.9972 18.4529 1.4 8.66857 -58.0576 -168.576
3740 12.4972 18.4529 1.4 8.18208 -62.1555 159.852
3741 12.9972 18.4529 1.4 7.69733 -65.8161 120.102
3742 13.4972 18.4529 1.4 7.21466 -63.2403 171.354
3743 13.9972 18.4529 1.4 6.73451 -55.0707 -122.821
3744 14.4972 18.4529 1.4 6.25748 -56.3157 -172.737
3745 14.9972 18.4529 1.4 5.78433 -57.6538 -171.456
3746 15.4972 18.4529 1.4 5.31609 -52.5433 -151.843
3747 15.9972 18.4529 1.4 4.8542 -68.1552 130.591
3748 16.4972 18.4529 1.4 4.40064 -56.0111 110.508
3749 16.9972 18.4529 1.4 3.95828 -58.8274 163.95
3750 17.4972 18.4529 1.4 3.53134 -250 0
3751 17.9972 18.4529 1.4 3.12614 -250 0
3752 18.4972 18.4529 1.4 2.7523 -250 0
3753 18.9972 18.4529 1.4 2.42437 -250 0
3754 19.4972 18.4529 1.4 2.16332 -250 0
3755 19.9972 18.4529 1.4 1.99558 -250 0
3756 20.4972 18.4529 1.4 1.94544 -250 0
3757 20.9972 18.4529 1.4 2.02166 -52.0125 -109.2
3758 21.4972 18.4529 1.4 2.21122 -50.1893 6.90357
3759 21.9972 18.4529 1.4 2.48835 -47.6939 -98.4633
3760 22.4972 18.4529 1.4 2.82741 -44.6368 -11.4711
3761 22.9972 18.4529 1.4 3.20884 -44.8243 -101.85
3762 23.4972 18.4529 1.4 3.61926 -44.0938 96.5619
3763 23.9972 18.4529 1.4 4.04987 -50.5807 -69.2593
3764 24.4972 18.4529 1.4 4.49487 -60.2569 104.881
3765 24.9972 18.4529 1.4 4.95037 -60.6482 79.5928
3766 25.4972 18.4529 1.4 5.41374 -58.3135 143.035
3767 25.9972 18.4529 1.4 5.88311 -57.4396 41.5972
3768 26.4972 18.4529 1.4 6.35715 -55.1527 158.559
3769 26.9972 18.4529 1.4 6.83489 -59.7836 -119.515
3770 27.4972 18.4529 1.4 7.31561 -72.4204 -58.0669
3771 27.9972 18.4529 1.4 7.79875 -62.3824 -179.611
3772 28.4972 18.4529 1.4 8.2839 -58.2255 -107.219
3773 28.9972 18.4529 1.4 8.77071 -58.5393 -71.6369
3774 29.4972 18.4529 1.4 9.25893 -58.1769 -93.2494
3775 29.9972 18.4529 1.4 9.74834 -59.1008 -96.8331
3776 30.4972 18.4529 1.4 10.2388 -60.0357 -109.935
3777 -28.0028 18.9529 1.4 48.4691 -250 0
3778 -27.5028 18.9529 1.4 47.9694 -250 0
3779 -27.0028 18.9529 1.4 47.4696 -250 0
3780 -26.5028 18.9529 1.4 46.9698 -250 0
3781 -26.0028 18.9529 1.4 46.4701 -250 0
3782 -25.5028 18.9529 1.4 45.9703 -250 0
3783 -25.0028 18.9529 1.4 45.4706 -250 0
3784 -24.5028 18.9529 1.4 44.9708 -250 0
3785 -24.0028 18.9529 1.4 44.4711 -250 0
3786 -23.5028 18.9529 1.4 43.9714 -250 0
3787 -23.0028 18.9529 1.4 43.4716 -250 0
3788 -22.5028 18.9529 1.4 42.9719 -250 0
3789 -22.0028 18.9529 1.4 42.4722 -250 0
3790 -21.5028 18.9529 1.4 41.9725 -250 0
3791 -21.0028 18.9529 1.4 41.4728 -250 0
3792 -20.5028 18.9529 1.4 40.9731 -155.765 -130.164
3793 -20.0028 18.9529 1.4 40.4734 -250 0
3794 -19.5028 18.9529 1.4 39.9737 -250 0
3795 -19.0028 18.9529 1.4 39.4741 -250 0
3796 -18.5028 18.9529 1.4 38.9744 -250 0
3797 -18.0028 18.9529 1.4 38.4747 -250 0
3798 -17.5028 18.9529 1.4 37.9751 -250 0
3799 -17.0028 18.9529 1.4 37.4755 -250 0
3800 -16.5028 18.9529 1.4 36.9758 -250 0
3801 -16.0028 18.9529 1.4 36.4762 -250 0
3802 -15.5028 18.9529 1.4 35.9766 -250 0
3803 -15.0028 18.9529 1.4 35.477 -250 0
3804 -14.5028 18.9529 1.4 34.9775 -250 0
3805 -14.0028 18.9529 1.4 34.4779 -250 0
3806 -13.5028 18.9529 1.4 33.9783 -250 0
3807 -13.0028 18.9529 1.4 33.4788 -250 0
3808 -12.5028 18.9529 1.4 32.9793 -250 0
3809 -12.0028 18.9529 1.4 32.4798 -250 0
3810 -11.5028 18.9529 1.4 31.9803 -250 0
3811 -11.0028 18.9529 1.4 31.4808 -112.945 -119.912
3812 -10.5028 18.9529 1.4 30.9813 -114.121 151.571
3813 -10.0028 18.9529 1.4 30.4819 -97.3253 36.3498
3814 -9.50282 18.9529 1.4 29.9824 -78.7349 28.3768
3815 -9.00282 18.9529 1.4 29.483 -79.2256 106.623
3816 -8.50282 18.9529 1.4 28.9836 -250 0
3817 -8.00282 18.9529 1.4 28.4843 -250 0
3818 -7.50282 18.9529 1.4 27.9849 -250 0
3819 -7.00282 18.9529 1.4 27.4856 -250 0
3820 -6.50282 18.9529 1.4 26.9863 -250 0
3821 -6.00282 18.9529 1.4 26.487 -250 0
3822 -5.50282 18.9529 1.4 25.9878 -250 0
3823 -5.00282 18.9529 1.4 25.4886 -250 0
3824 -4.50282 18.9529 1.4 24.9894 -250 0
3825 -4.00282 18.9529 1.4 24.4903 -250 0
3826 -3.50282 18.9529 1.4 23.9912 -93.0033 174.953
3827 -3.00282 18.9529 1.4 23.4921 -250 0
3828 -2.50282 18.9529 1.4 22.993 -104.341 -155.161
3829 -2.00282 18.9529 1.4 22.4941 -95.5755 28.9056
3830 -1.50282 18.9529 1.4 21.9951 -95.0106 75.7091
3831 -1.00282 18.9529 1.4 21.4962 -99.1395 176.128
3832 -0.50282 18.9529 1.4 20.9974 -250 0
3833 -0.00282 18.9529 1.4 20.4986 -91.8021 -22.2796
3834 0.49718 18.9529 1.4 19.9999 -90.9665 35.5838
3835 0.99718 18.9529 1.4 19.5012 -72.4016 61.6112
3836 1.49718 18.9529 1.4 19.0026 -73.5489 68.5587
3837 1.99718 18.9529 1.4 18.5041 -85.6974 0.0674995
3838 2.49718 18.9529 1.4 18.0057 -97.5085 39.2336
3839 2.99718 18.9529 1.4 17.5073 -95.5412 28.0581
3840 3.49718 18.9529 1.4 17.0091 -250 0
3841 3.99718 18.9529 1.4 16.5109 -250 0
3842 4.49718 18.9529 1.4 16.0129 -250 0
3843 4.99718 18.9529 1.4 15.515 -250 0
3844 5.49718 18.9529 1.4 15.0173 -250 0
3845 5.99718 18.9529 1.4 14.5197 -250 0
3846 6.49718 18.9529 1.4 14.0222 -250 0
3847 6.99718 18.9529 1.4 13.525 -70.4614 -100.771
3848 7.49718 18.9529 1.4 13.028 -64.1852 -90.7851
3849 7.99718 18.9529 1.4 12.5312 -64.6038 -65.3306
3850 8.49718 18.9529 1.4 12.0346 -66.5402 -30.8224
3851 8.99718 18.9529 1.4 11.5384 -65.0457 -33.003
3852 9.49718 18.9529 1.4 11.0425 -69.8999 -31.5209
3853 9.99718 18.9529 1.4 10.547 -74.1156 -41.1485
3854 10.4972 18.9529 1.4 10.052 -61.5977 164.935
3855 10.9972 18.9529 1.4 9.55744 -94.4056 128.348
3856 11.4972 18.9529 1.4 9.0635 -60.8723 -140.294
3857 11.9972 18.9529 1.4 8.57026 -63.373 176.566
3858 12.4972 18.9529 1.4 8.07786 -62.0439 -154.794
3859 12.9972 18.9529 1.4 7.58645 -60.5077 -167.048
3860 13.4972 18.9529 1.4 7.09624 -59.9833 171.959
3861 13.9972 18.9529 1.4 6.60749 -64.5478 151.941
3862 14.4972 18.9529 1.4 6.12057 -62.3396 20.3769
3863 14.9972 18.9529 1.4 5.63593 -63.1643 -57.9582
3864 15.4972 18.9529 1.4 5.15423 -56.9803 -103.522
3865 15.9972 18.9529 1.4 4.67638 -61.1309 -172.456
3866 16.4972 18.9529 1.4 4.20368 -55.7462 -141.37
3867 16.9972 18.9529 1.4 3.73808 -79.8445 107.365
3868 17.4972 18.9529 1.4 3.28263 -250 0
3869 17.9972 18.9529 1.4 2.84219 -250 0
3870 18.4972 18.9529 1.4 2.42496 -250 0
3871 18.9972 18.9529 1.4 2.0452 -250 0
3872 19.4972 18.9529 1.4 1.72778 -250 0
3873 19.9972 18.9529 1.4 1.51248 -250 0
3874 20.4972 18.9529 1.4 1.44568 -250 0
3875 20.9972 18.9529 1.4 1.54673 -53.9846 -153.69
3876 21.4972 18.9529 1.4 1.78739 -46.8803 -138.484
3877 21.9972 18.9529 1.4 2.12065 -43.9194 -103.549
3878 22.4972 18.9529 1.4 2.50989 -44.7735 153.819
3879 22.9972 18.9529 1.4 2.9329 -45.6988 -49.5554
3880 23.4972 18.9529 1.4 3.37703 -46.0707 85.4756
3881 23.9972 18.9529 1.4 3.83493 -52.098 164.594
3882 24.4972 18.9529 1.4 4.30222 -47.9476 -143.422
3883 24.9972 18.9529 1.4 4.77614 -61.2786 -162.556
3884 25.4972 18.9529 1.4 5.25489 -49.0377 -119.982
3885 25.9972 18.9529 1.4 5.73727 -48.308 -72.3542
3886 26.4972 18.9529 1.4 6.22243 -54.104 -101.631
3887 26.9972 18.9529 1.4 6.70977 -54.6388 -90.4166
3888 27.4972 18.9529 1.4 7.19885 -54.0375 -95.2324
3889 27.9972 18.9529 1.4 7.68933 -62.0543 -69.4355
3890 28.4972 18.9529 1.4 8.18097 -64.4867 -52.6784
3891 28.9972 18.9529 1.4 8.67356 -59.6965 166.742
3892 29.4972 18.9529 1.4 9.16695 -57.8099 -169.475
3893 29.9972 18.9529 1.4 9.66102 -63.4717 154.126
3894 30.4972 18.9529 1.4 10.1557 -60.7374 136.047
3895 -28.0028 19.4529 1.4 48.4568 -250 0
3896 -27.5028 19.4529 1.4 47.9569 -250 0
3897 -27.0028 19.4529 1.4 47.457 -250 0
3898 -26.5028 19.4529 1.4 46.9571 -250 0
3899 -26.0028 19.4529 1.4 46.4572 -250 0
3900 -25.5028 19.4529 1.4 45.9573 -250 0
3901 -25.0028 19.4529 1.4 45.4574 -250 0
3902 -24.5028 19.4529 1.4 44.9575 -250 0
3903 -24.0028 19.4529 1.4 44.4577 -250 0
3904 -23.5028 19.4529 1.4 43.9578 -250 0
3905 -23.0028 19.4529 1.4 43.4579 -250 0
3906 -22.5028 19.4529 1.4 42.958 -250 0
3907 -22.0028 19.4529 1.4 42.4581 -250 0
3908 -21.5028 19.4529 1.4 41.9582 -250 0
3909 -21.0028 19.4529 1.4 41.4584 -250 0
3910 -20.5028 19.4529 1.4 40.9585 -250 0
3911 -20.0028 19.4529 1.4 40.4586 -250 0
3912 -19.5028 19.4529 1.4 39.9588 -250 0
3913 -19.0028 19.4529 1.4 39.4589 -250 0
3914 -18.5028 19.4529 1.4 38.9591 -250 0
3915 -18.0028 19.4529 1.4 38.4592 -250 0
3916 -17.5028 19.4529 1.4 37.9594 -250 0
3917 -17.0028 19.4529 1.4 37.4595 -250 0
3918 -16.5028 19.4529 1.4 36.9597 -250 0
3919 -16.0028 19.4529 1.4 36.4599 -250 0
3920 -15.5028 19.4529 1.4 35.96 -250 0
3921 -15.0028 19.4529 1.4 35.4602 -250 0
3922 -14.5028 19.4529 1.4 34.9604 -250 0
3923 -14.0028 19.4529 1.4 34.4606 -250 0
3924 -13.5028 19.4529 1.4 33.9608 -250 0
3925 -13.0028 19.4529 1.4 33.461 -250 0
3926 -12.5028 19.4529 1.4 32.9612 -250 0
3927 -12.0028 19.4529 1.4 32.4614 -250 0
3928 -11.5028 19.4529 1.4 31.9616 -250 0
3929 -11.0028 19.4529 1.4 31.4618 -250 0
3930 -10.5028 19.4529 1.4 30.962 -250 0
3931 -10.0028 19.4529 1.4 30.4623 -79.427 113.157
3932 -9.50282 19.4529 1.4 29.9625 -91.1301 -47.1881
3933 -9.00282 19.4529 1.4 29.4628 -250 0
3934 -8.50282 19.4529 1.4 28.963 -250 0
3935 -8.00282 19.4529 1.4 28.4633 -250 0
3936 -7.50282 19.4529 1.4 27.9636 -250 0
3937 -7.00282 19.4529 1.4 27.4639 -250 0
3938 -6.50282 19.4529 1.4 26.9642 -250 0
3939 -6.00282 19.4529 1.4 26.4645 -250 0
3940 -5.50282 19.4529 1.4 25.9648 -250 0
3941 -5.00282 19.4529 1.4 25.4651 -250 0
3942 -4.50282 19.4529 1.4 24.9655 -250 0
3943 -4.00282 19.4529 1.4 24.4659 -250 0
3944 -3.50282 19.4529 1.4 23.9662 -250 0
3945 -3.00282 19.4529 1.4 23.4666 -250 0
3946 -2.50282 19.4529 1.4 22.9671 -102.175 28.0854
3947 -2.00282 19.4529 1.4 22.4675 -101.75 -160.104
3948 -1.50282 19.4529 1.4 21.9679 -100.496 28.72
3949 -1.00282 19.4529 1.4 21.4684 -89.8044 -122.828
3950 -0.50282 19.4529 1.4 20.9689 -104.518 -49.28
3951 -0.00282 19.4529 1.4 20.4694 -87.2312 -173.402
3952 0.49718 19.4529 1.4 19.97 -72.4406 141.747
3953 0.99718 19.4529 1.4 19.4705 -74.0663 145.545
3954 1.49718 19.4529 1.4 18.9711 -90.5795 -19.9746
3955 1.99718 19.4529 1.4 18.4718 -88.6968 -14.0977
3956 2.49718 19.4529 1.4 17.9725 -87.9297 -13.0726
3957 2.99718 19.4529 1.4 17.4732 -88.0068 -14.7806
3958 3.49718 19.4529 1.4 16.9739 -250 0
3959 3.99718 19.4529 1.4 16.4747 -250 0
3960 4.49718 19.4529 1.4 15.9756 -250 0
3961 4.99718 19.4529 1.4 15.4765 -250 0
3962 5.49718 19.4529 1.4 14.9774 -250 0
3963 5.99718 19.4529 1.4 14.4785 -250 0
3964 6.49718 19.4529 1.4 13.9796 -250 0
3965 6.99718 19.4529 1.4 13.4808 -69.2278 29.0643
3966 7.49718 19.4529 1.4 12.982 -68.9626 62.761
3967 7.99718 19.4529 1.4 12.4834 -63.427 99.4683
3968 8.49718 19.4529 1.4 11.9849 -68.7316 107.861
3969 8.99718 19.4529 1.4 11.4865 -65.7946 176.036
3970 9.49718 19.4529 1.4 10.9883 -70.5251 170.086
3971 9.99718 19.4529 1.4 10.4902 -62.4195 -120.588
3972 10.4972 19.4529 1.4 9.99237 -65.0801 -23.2722
3973 10.9972 19.4529 1.4 9.49473 -58.8121 -20.727
3974 11.4972 19.4529 1.4 8.99735 -68.6423 -51.1938
3975 11.9972 19.4529 1.4 8.50027 -66.879 47.4287
3976 12.4972 19.4529 1.4 8.00356 -64.7632 79.4208
3977 12.9972 19.4529 1.4 7.50729 -62.7767 103.808
3978 13.4972 19.4529 1.4 7.01155 -61.1978 122.072
3979 13.9972 19.4529 1.4 6.51646 -59.7911 -172.314
3980 14.4972 19.4529 1.4 6.02218 -59.7461 179.601
3981 14.9972 19.4529 1.4 5.52892 -55.0814 109.012
3982 15.4972 19.4529 1.4 5.037 -54.3798 89.6312
3983 15.9972 19.4529 1.4 4.54684 -53.3176 56.4071
3984 16.4972 19.4529 1.4 4.05908 -59.6855 3.3343
3985 16.9972 19.4529 1.4 3.57471 -60.8851 3.89448
3986 17.4972 19.4529 1.4 3.09531 -250 0
3987 17.9972 19.4529 1.4 2.62361 -250 0
3988 18.4972 19.4529 1.4 2.16465 -250 0
3989 18.9972 19.4529 1.4 1.72861 -250 0
3990 19.4972 19.4529 1.4 1.33809 -250 0
3991 19.9972 19.4529 1.4 1.0454 -250 0
3992 20.4972 19.4529 1.4 0.946181 -250 0
3993 20.9972 19.4529 1.4 1.09437 -45.7779 107.433
3994 21.4972 19.4529 1.4 1.41423 -38.9772 -174.436
3995 21.9972 19.4529 1.4 1.81726 -42.0338 24.0089
3996 22.4972 19.4529 1.4 2.25938 -44.2776 144.342
3997 22.9972 19.4529 1.4 2.72162 -48.2984 -151.403
3998 23.4972 19.4529 1.4 3.19524 -48.9194 -116.026
3999 23.9972 19.4529 1.4 3.67586 -48.1224 -90.4264
4000 24.4972 19.4529 1.4 4.16105 -47.3329 -90.1277
4001 24.9972 19.4529 1.4 4.64938 -56.227 -9.9703
4002 25.4972 19.4529 1.4 5.13996 -57.826 -143.506
4003 25.9972 19.4529 1.4 5.63219 -54.9987 176.641
4004 26.4972 19.4529 1.4 6.12568 -55.4984 149.483
4005 26.9972 19.4529 1.4 6.62014 -57.0216 157.313
4006 27.4972 19.4529 1.4 7.11538 -55.1684 128.865
4007 27.9972 19.4529 1.4 7.61125 -60.9475 125.041
4008 28.4972 19.4529 1.4 8.10762 -64.7823 102.857
4009 28.9972 19.4529 1.4 8.60441 -59.4996 43.2167
4010 29.4972 19.4529 1.4 9.10155 -61.7444 -1.82635
4011 29.9972 19.4529 1.4 9.59899 -58.6068 4.026
4012 30.4972 19.4529 1.4 10.0967 -68.0262 -64.4854
4013 -28.0028 19.9529 1.4 48.4497 -250 0
4014 -27.5028 19.9529 1.4 47.9497 -250 0
4015 -27.0028 19.9529 1.4 47.4497 -250 0
4016 -26.5028 19.9529 1.4 46.9497 -250 0
4017 -26.0028 19.9529 1.4 46.4497 -250 0
4018 -25.5028 19.9529 1.4 45.9498 -250 0
4019 -25.0028 19.9529 1.4 45.4498 -250 0
4020 -24.5028 19.9529 1.4 44.9498 -250 0
4021 -24.0028 19.9529 1.4 44.4498 -250 0
4022 -23.5028 19.9529 1.4 43.9499 -250 0
4023 -23.0028 19.9529 1.4 43.4499 -250 0
4024 -22.5028 19.9529 1.4 42.9499 -250 0
4025 -22.0028 19.9529 1.4 42.4499 -250 0
4026 -21.5028 19.9529 1.4 41.95 -250 0
4027 -21.0028 19.9529 1.4 41.45 -250 0
4028 -20.5028 19.9529 1.4 40.95 -250 0
4029 -20.0028 19.9529 1.4 40.4501 -250 0
4030 -19.5028 19.9529 1.4 39.9501 -250 0
4031 -19.0028 19.9529 1.4 39.4501 -250 0
4032 -18.5028 19.9529 1.4 38.9502 -250 0
4033 -18.0028 19.9529 1.4 38.4502 -250 0
4034 -17.5028 19.9529 1.4 37.9502 -250 0
4035 -17.0028 19.9529 1.4 37.4503 -250 0
4036 -16.5028 19.9529 1.4 36.9503 -250 0
4037 -16.0028 19.9529 1.4 36.4503 -250 0
4038 -15.5028 19.9529 1.4 35.9504 -250 0
4039 -15.0028 19.9529 1.4 35.4504 -250 0
4040 -14.5028 19.9529 1.4 34.9504 -250 0
4041 -14.0028 19.9529 1.4 34.4505 -250 0
4042 -13.5028 19.9529 1.4 33.9505 -250 0
4043 -13.0028 19.9529 1.4 33.4506 -250 0
4044 -12.5028 19.9529 1.4 32.9506 -250 0
4045 -12.0028 19.9529 1.4 32.4507 -250 0
4046 -11.5028 19.9529 1.4 31.9507 -250 0
4047 -11.0028 19.9529 1.4 31.4508 -250 0
4048 -10.5028 19.9529 1.4 30.9508 -250 0
4049 -10.0028 19.9529 1.4 30.4509 -94.2165 67.8693
4050 -9.50282 19.9529 1.4 29.9509 -250 0
4051 -9.00282 19.9529 1.4 29.451 -250 0
4052 -8.50282 19.9529 1.4 28.951 -250 0
4053 -8.00282 19.9529 1.4 28.4511 -250 0
4054 -7.50282 19.9529 1.4 27.9512 -250 0
4055 -7.00282 19.9529 1.4 27.4512 -250 0
4056 -6.50282 19.9529 1.4 26.9513 -250 0
4057 -6.00282 19.9529 1.4 26.4514 -250 0
4058 -5.50282 19.9529 1.4 25.9514 -250 0
4059 -5.00282 19.9529 1.4 25.4515 -250 0
4060 -4.50282 19.9529 1.4 24.9516 -250 0
4061 -4.00282 19.9529 1.4 24.4517 -250 0
4062 -3.50282 19.9529 1.4 23.9517 -250 0
4063 -3.00282 19.9529 1.4 23.4518 -250 0
4064 -2.50282 19.9529 1.4 22.9519 -250 0
4065 -2.00282 19.9529 1.4 22.452 -102.306 116.906
4066 -1.50282 19.9529 1.4 21.9521 -101.964 -77.5059
4067 -1.00282 19.9529 1.4 21.4522 -108.247 157.285
4068 -0.50282 19.9529 1.4 20.9523 -89.8331 -13.2739
4069 -0.00282 19.9529 1.4 20.4524 -72.6511 -141.2
4070 0.49718 19.9529 1.4 19.9526 -74.9261 -139.433
4071 0.99718 19.9529 1.4 19.4527 -93.1402 159.467
4072 1.49718 19.9529 1.4 18.9528 -89.4781 168.265
4073 1.99718 19.9529 1.4 18.453 -88.7691 172.201
4074 2.49718 19.9529 1.4 17.9531 -90.4455 176.181
4075 2.99718 19.9529 1.4 17.4533 -92.7037 -143.19
4076 3.49718 19.9529 1.4 16.9534 -250 0
4077 3.99718 19.9529 1.4 16.4536 -250 0
4078 4.49718 19.9529 1.4 15.9538 -250 0
4079 4.99718 19.9529 1.4 15.454 -250 0
4080 5.49718 19.9529 1.4 14.9542 -250 0
4081 5.99718 19.9529 1.4 14.4545 -250 0
4082 6.49718 19.9529 1.4 13.9547 -250 0
4083 6.99718 19.9529 1.4 13.455 -68.572 104.057
4084 7.49718 19.9529 1.4 12.9552 -68.2573 140.63
4085 7.99718 19.9529 1.4 12.4556 -67.9311 177.13
4086 8.49718 19.9529 1.4 11.9559 -68.0126 -167.955
4087 8.99718 19.9529 1.4 11.4562 -65.6317 -97.1468
4088 9.49718 19.9529 1.4 10.9566 -64.7221 -65.3581
4089 9.99718 19.9529 1.4 10.4571 -69.3939 -51.6574
4090 10.4972 19.9529 1.4 9.95755 -58.4423 51.4063
4091 10.9972 19.9529 1.4 9.45807 -65.8213 54.334
4092 11.4972 19.9529 1.4 8.95866 -62.5148 114.637
4093 11.9972 19.9529 1.4 8.45931 -62.0595 150.003
4094 12.4972 19.9529 1.4 7.96005 -61.5811 -174.897
4095 12.9972 19.9529 1.4 7.46088 -61.0772 -140.117
4096 13.4972 19.9529 1.4 6.96183 -60.5454 -105.726
4097 13.9972 19.9529 1.4 6.46293 -57.2548 -83.6441
4098 14.4972 19.9529 1.4 5.96422 -61.1508 -116.113
4099 14.9972 19.9529 1.4 5.46574 -54.0238 -152.191
4100 15.4972 19.9529 1.4 4.96756 -57.8211 -156.322
4101 15.9972 19.9529 1.4 4.46979 -60.9824 -156.311
4102 16.4972 19.9529 1.4 3.97258 -58.4328 155.968
4103 16.9972 19.9529 1.4 3.47618 -54.677 88.6278
4104 17.4972 19.9529 1.4 2.98097 -250 0
4105 17.9972 19.9529 1.4 2.48769 -250 0
4106 18.4972 19.9529 1.4 1.99774 -250 0
4107 18.9972 19.9529 1.4 1.51439 -250 0
4108 19.4972 19.9529 1.4 1.04678 -250 0
4109 19.9972 19.9529 1.4 0.630984 -250 0
4110 20.4972 19.9529 1.4 0.447805 -250 0
4111 20.9972 19.9529 1.4 0.709167 -33.1317 89.8291
4112 21.4972 19.9529 1.4 1.1425 -38.9688 -162.721
4113 21.9972 19.9529 1.4 1.61484 -42.6182 -128.093
4114 22.4972 19.9529 1.4 2.10002 -45.5505 -126.349
4115 22.9972 19.9529 1.4 2.59084 -46.2419 -132.878
4116 23.4972 19.9529 1.4 3.08462 -48.7952 -168.258
4117 23.9972 19.9529 1.4 3.58012 -49.1265 176.122
4118 24.4972 19.9529 1.4 4.07672 -49.7952 100.227
4119 24.9972 19.9529 1.4 4.57406 -50.7787 87.2816
4120 25.4972 19.9529 1.4 5.07192 -53.0266 60.5562
4121 25.9972 19.9529 1.4 5.57017 -56.5878 2.20448
4122 26.4972 19.9529 1.4 6.06871 -58.7498 -60.4841
4123 26.9972 19.9529 1.4 6.56746 -57.2643 -53.2606
4124 27.4972 19.9529 1.4 7.0664 -56.3697 -94.6898
4125 27.9972 19.9529 1.4 7.56547 -60.1166 -98.2069
4126 28.4972 19.9529 1.4 8.06466 -64.9672 -170.238
4127 28.9972 19.9529 1.4 8.56394 -62.1976 163.501
4128 29.4972 19.9529 1.4 9.06331 -60.6717 129.326
4129 29.9972 19.9529 1.4 9.56274 -62.0797 80.038
4130 30.4972 19.9529 1.4 10.0622 -65.2462 65.1363
4131 -28.0028 20.4529 1.4 48.4476 -250 0
4132 -27.5028 20.4529 1.4 47.9476 -250 0
4133 -27.0028 20.4529 1.4 47.4476 -250 0
4134 -26.5028 20.4529 1.4 46.9476 -250 0
4135 -26.0028 20.4529 1.4 46.4476 -250 0
4136 -25.5028 20.4529 1.4 45.9476 -250 0
4137 -25.0028 20.4529 1.4 45.4476 -250 0
4138 -24.5028 20.4529 1.4 44.9476 -250 0
4139 -24.0028 20.4529 1.4 44.4476 -250 0
4140 -23.5028 20.4529 1.4 43.9476 -250 0
4141 -23.0028 20.4529 1.4 43.4476 -250 0
4142 -22.5028 20.4529 1.4 42.9476 -250 0
4143 -22.0028 20.4529 1.4 42.4476 -250 0
4144 -21.5028 20.4529 1.4 41.9476 -250 0
4145 -21.0028 20.4529 1.4 41.4476 -250 0
4146 -20.5028 20.4529 1.4 40.9476 -250 0
4147 -20.0028 20.4529 1.4 40.4476 -250 0
4148 -19.5028 20.4529 1.4 39.9477 -250 0
4149 -19.0028 20.4529 1.4 39.4477 -250 0
4150 -18.5028 20.4529 1.4 38.9477 -250 0
4151 -18.0028 20.4529 1.4 38.4477 -250 0
4152 -17.5028 20.4529 1.4 37.9477 -250 0
4153 -17.0028 20.4529 1.4 37.4477 -250 0
4154 -16.5028 20.4529 1.4 36.9477 -250 0
4155 -16.0028 20.4529 1.4 36.4477 -250 0
4156 -15.5028 20.4529 1.4 35.9477 -250 0
4157 -15.0028 20.4529 1.4 35.4477 -250 0
4158 -14.5028 20.4529 1.4 34.9477 -250 0
4159 -14.0028 20.4529 1.4 34.4477 -250 0
4160 -13.5028 20.4529 1.4 33.9477 -250 0
4161 -13.0028 20.4529 1.4 33.4477 -250 0
4162 -12.5028 20.4529 1.4 32.9477 -250 0
4163 -12.0028 20.4529 1.4 32.4477 -250 0
4164 -11.5028 20.4529 1.4 31.9477 -250 0
4165 -11.0028 20.4529 1.4 31.4477 -250 0
4166 -10.5028 20.4529 1.4 30.9477 -250 0
4167 -10.0028 20.4529 1.4 30.4477 -250 0
4168 -9.50282 20.4529 1.4 29.9477 -250 0
4169 -9.00282 20.4529 1.4 29.4477 -250 0
4170 -8.50282 20.4529 1.4 28.9477 -250 0
4171 -8.00282 20.4529 1.4 28.4477 -250 0
4172 -7.50282 20.4529 1.4 27.9477 -250 0
4173 -7.00282 20.4529 1.4 27.4477 -250 0
4174 -6.50282 20.4529 1.4 26.9477 -250 0
4175 -6.00282 20.4529 1.4 26.4477 -250 0
4176 -5.50282 20.4529 1.4 25.9477 -250 0
4177 -5.00282 20.4529 1.4 25.4477 -250 0
4178 -4.50282 20.4529 1.4 24.9477 -250 0
4179 -4.00282 20.4529 1.4 24.4477 -250 0
4180 -3.50282 20.4529 1.4 23.9477 -250 0
4181 -3.00282 20.4529 1.4 23.4477 -250 0
4182 -2.50282 20.4529 1.4 22.9477 -250 0
4183 -2.00282 20.4529 1.4 22.4477 -250 0
4184 -1.50282 20.4529 1.4 21.9477 -102.452 -155.806
4185 -1.00282 20.4529 1.4 21.4477 -102.183 4.08637
4186 -0.50282 20.4529 1.4 20.9477 -250 0
4187 -0.00282 20.4529 1.4 20.4477 -75.5878 -58.2507
4188 0.49718 20.4529 1.4 19.9477 -96.4867 -120.348
4189 0.99718 20.4529 1.4 19.4477 -88.1573 -86.388
4190 1.49718 20.4529 1.4 18.9477 -85.694 -76.7214
4191 1.99718 20.4529 1.4 18.4477 -86.6408 -67.807
4192 2.49718 20.4529 1.4 17.9477 -91.5729 -47.982
4193 2.99718 20.4529 1.4 17.4477 -95.5328 42.1566
4194 3.49718 20.4529 1.4 16.9477 -250 0
4195 3.99718 20.4529 1.4 16.4477 -250 0
4196 4.49718 20.4529 1.4 15.9477 -250 0
4197 4.99718 20.4529 1.4 15.4477 -250 0
4198 5.49718 20.4529 1.4 14.9477 -250 0
4199 5.99718 20.4529 1.4 14.4477 -250 0
4200 6.49718 20.4529 1.4 13.9477 -250 0
4201 6.99718 20.4529 1.4 13.4477 -68.3964 125.028
4202 7.49718 20.4529 1.4 12.9477 -68.069 162.399
4203 7.99718 20.4529 1.4 12.4477 -67.7287 -160.241
4204 8.49718 20.4529 1.4 11.9477 -67.3744 -122.891
4205 8.99718 20.4529 1.4 11.4477 -63.2447 -75.8887
4206 9.49718 20.4529 1.4 10.9478 -65.8749 -63.9867
4207 9.99718 20.4529 1.4 10.4478 -66.2153 -10.9214
4208 10.4972 20.4529 1.4 9.94777 -59.2767 55.3818
4209 10.9972 20.4529 1.4 9.44777 -64.0771 116.48
4210 11.4972 20.4529 1.4 8.94778 -62.1338 146.207
4211 11.9972 20.4529 1.4 8.44779 -61.637 -176.573
4212 12.4972 20.4529 1.4 7.9478 -61.11 -139.386
4213 12.9972 20.4529 1.4 7.44782 -60.5486 -102.236
4214 13.4972 20.4529 1.4 6.94783 -59.9481 -65.1302
4215 13.9972 20.4529 1.4 6.44785 -57.8309 -49.593
4216 14.4972 20.4529 1.4 5.94787 -64.3329 -84.0687
4217 14.9972 20.4529 1.4 5.44789 -55.3272 -116.6
4218 15.4972 20.4529 1.4 4.94792 -57.7049 -153.182
4219 15.9972 20.4529 1.4 4.44796 -63.0846 143.326
4220 16.4972 20.4529 1.4 3.948 -65.6087 114.122
4221 16.9972 20.4529 1.4 3.44805 -69.0954 -113.079
4222 17.4972 20.4529 1.4 2.94813 -250 0
4223 17.9972 20.4529 1.4 2.44824 -250 0
4224 18.4972 20.4529 1.4 1.9484 -250 0
4225 18.9972 20.4529 1.4 1.44867 -250 0
4226 19.4972 20.4529 1.4 0.949222 -250 0
4227 19.9972 20.4529 1.4 0.451011 -250 0
4228 20.4972 20.4529 1.4 0.076153 -250 0
4229 20.9972 20.4529 1.4 0.555146 -33.5781 115.258
4230 21.4972 20.4529 1.4 1.05384 -39.184 80.6163
4231 21.9972 20.4529 1.4 1.55337 -42.5322 44.6019
4232 22.4972 20.4529 1.4 2.05313 -44.9566 7.75074
4233 22.9972 20.4529 1.4 2.55299 -47.7667 -31.9856
4234 23.4972 20.4529 1.4 3.05289 -47.9183 -59.5289
4235 23.9972 20.4529 1.4 3.55282 -49.4484 -114.798
4236 24.4972 20.4529 1.4 4.05276 -50.6962 161.468
4237 24.9972 20.4529 1.4 4.55272 -50.7355 139.561
4238 25.4972 20.4529 1.4 5.05269 -52.4546 110.283
4239 25.9972 20.4529 1.4 5.55266 -57.1892 56.2684
4240 26.4972 20.4529 1.4 6.05264 -60.5516 -14.3016
4241 26.9972 20.4529 1.4 6.55262 -57.3217 -10.5665
4242 27.4972 20.4529 1.4 7.0526 -56.5439 -54.4713
4243 27.9972 20.4529 1.4 7.55259 -60.8469 -54.8084
4244 28.4972 20.4529 1.4 8.05258 -66.1158 -119.65
4245 28.9972 20.4529 1.4 8.55257 -60.4998 -163.894
4246 29.4972 20.4529 1.4 9.05256 -61.74 149.715
4247 29.9972 20.4529 1.4 9.55255 -63.6177 122.773
4248 30.4972 20.4529 1.4 10.0525 -61.7315 86.451
