#Rx
# X(m), Y(m), Z(m), Distance(m), Power (dBm) Phase (deg)
1 -28.0028 2.95289 1.4 25.0488 -91.5586 -95.0173
2 -27.5028 2.95289 1.4 24.6258 -96.1837 136.056
3 -27.0028 2.95289 1.4 24.2058 -96.6456 9.16058
4 -26.5028 2.95289 1.4 23.7889 -120.719 -98.5962
5 -26.0028 2.95289 1.4 23.3753 -122.496 -157.965
6 -25.5028 2.95289 1.4 22.965 -129.924 103.599
7 -25.0028 2.95289 1.4 22.5584 -130.229 -79.81
8 -24.5028 2.95289 1.4 22.1557 -130.529 25.3749
9 -24.0028 2.95289 1.4 21.7569 -105.513 91.5337
10 -23.5028 2.95289 1.4 21.3625 -100.33 -93.6702
11 -23.0028 2.95289 1.4 20.9725 -100.195 127.117
12 -22.5028 2.95289 1.4 20.5873 -100.151 10.5297
13 -22.0028 2.95289 1.4 20.2071 -93.4505 -127.573
14 -21.5028 2.95289 1.4 19.8322 -97.5428 -150.018
15 -21.0028 2.95289 1.4 19.4629 -110.94 156.566
16 -20.5028 2.95289 1.4 19.0997 -133.767 -72.0549
17 -20.0028 2.95289 1.4 18.7427 -127.912 -101.133
18 -19.5028 2.95289 1.4 18.3923 -99.7632 -91.1918
19 -19.0028 2.95289 1.4 18.049 -92.9254 -39.0737
20 -18.5028 2.95289 1.4 17.7132 -89.1711 -116.648
21 -18.0028 2.95289 1.4 17.3853 -85.2918 -23.125
22 -17.5028 2.95289 1.4 17.0657 -96.0521 -123.608
23 -17.0028 2.95289 1.4 16.755 -250 0
24 -16.5028 2.95289 1.4 16.4536 -250 0
25 -16.0028 2.95289 1.4 16.162 -250 0
26 -15.5028 2.95289 1.4 15.8808 -250 0
27 -15.0028 2.95289 1.4 15.6106 -250 0
28 -14.5028 2.95289 1.4 15.3519 -250 0
29 -14.0028 2.95289 1.4 15.1053 -250 0
30 -13.5028 2.95289 1.4 14.8715 -71.0491 -63.4863
31 -13.0028 2.95289 1.4 14.651 -67.8534 -81.9986
32 -12.5028 2.95289 1.4 14.4445 -73.0576 145.445
33 -12.0028 2.95289 1.4 14.2525 -71.2571 30.0804
34 -11.5028 2.95289 1.4 14.0756 -70.0235 -68.6182
35 -11.0028 2.95289 1.4 13.9145 -75.8279 101.283
36 -10.5028 2.95289 1.4 13.7697 -87.6887 97.7959
37 -10.0028 2.95289 1.4 13.6416 -73.8847 -9.7578
38 -9.50282 2.95289 1.4 13.5309 -86.405 -19.1806
39 -9.00282 2.95289 1.4 13.4378 -74.6716 73.305
40 -8.50282 2.95289 1.4 13.3628 -72.0369 82.0789
41 -8.00282 2.95289 1.4 13.3062 -59.3463 134.325
42 -7.50282 2.95289 1.4 13.2682 -61.1534 80.8977
43 -7.00282 2.95289 1.4 13.249 -61.093 79.6713
44 -6.50282 2.95289 1.4 13.2487 -69.8681 -8.11303
45 -6.00282 2.95289 1.4 13.2671 -82.4618 -165.354
46 -5.50282 2.95289 1.4 13.3044 -90.7566 38.2481
47 -5.00282 2.95289 1.4 13.3603 -79.2785 -13.6615
48 -4.50282 2.95289 1.4 13.4346 -84.3619 42.1687
49 -4.00282 2.95289 1.4 13.527 -71.2771 145.947
50 -3.50282 2.95289 1.4 13.637 -62.8003 -119.736
51 -3.00282 2.95289 1.4 13.7644 -82.694 33.9923
52 -2.50282 2.95289 1.4 13.9086 -57.6679 -34.7944
53 -2.00282 2.95289 1.4 14.0691 -57.4338 86.9159
54 -1.50282 2.95289 1.4 14.2454 -64.1275 162.459
55 -1.00282 2.95289 1.4 14.4368 -67.0588 -135.605
56 -0.50282 2.95289 1.4 14.6428 -77.6345 -162.808
57 -0.00282 2.95289 1.4 14.8628 -72.1886 44.3888
58 0.49718 2.95289 1.4 15.0961 -73.0181 128.167
59 0.99718 2.95289 1.4 15.3422 -74.7471 85.979
60 1.49718 2.95289 1.4 15.6004 -77.4426 149.487
61 1.99718 2.95289 1.4 15.8702 -69.379 -160.441
62 2.49718 2.95289 1.4 16.151 -63.0467 -158.96
63 2.99718 2.95289 1.4 16.4421 -61.7408 51.5887
64 3.49718 2.95289 1.4 16.7432 -68.217 -104.853
65 3.99718 2.95289 1.4 17.0536 -250 0
66 4.49718 2.95289 1.4 17.3728 -250 0
67 4.99718 2.95289 1.4 17.7004 -250 0
68 5.49718 2.95289 1.4 18.0359 -250 0
69 5.99718 2.95289 1.4 18.3789 -80.555 -58.2402
70 6.49718 2.95289 1.4 18.729 -69.3068 -61.1121
71 6.99718 2.95289 1.4 19.0858 -69.1099 -60.2174
72 7.49718 2.95289 1.4 19.4488 -63.6826 -70.2173
73 7.99718 2.95289 1.4 19.8178 -63.2468 -78.9071
74 8.49718 2.95289 1.4 20.1925 -62.8212 -109.612
75 8.99718 2.95289 1.4 20.5725 -82.1641 -110.926
76 9.49718 2.95289 1.4 20.9575 -82.3049 -153.46
77 9.99718 2.95289 1.4 21.3473 -82.5421 149.635
78 10.4972 2.95289 1.4 21.7416 -65.6448 -25.6605
79 10.9972 2.95289 1.4 22.1402 -67.0494 -132.63
80 11.4972 2.95289 1.4 22.5428 -66.321 121.945
81 11.9972 2.95289 1.4 22.9493 -68.4742 -0.239102
82 12.4972 2.95289 1.4 23.3594 -74.7757 -112.252
83 12.9972 2.95289 1.4 23.7729 -77.6996 178.541
84 13.4972 2.95289 1.4 24.1897 -83.419 14.8691
85 13.9972 2.95289 1.4 24.6096 -250 0
86 14.4972 2.95289 1.4 25.0324 -83.7146 61.5611
87 14.9972 2.95289 1.4 25.458 -84.5516 -91.8818
88 15.4972 2.95289 1.4 25.8863 -78.1361 -105.713
89 15.9972 2.95289 1.4 26.3172 -81.077 80.1802
90 16.4972 2.95289 1.4 26.7504 -77.4881 -138.705
91 16.9972 2.95289 1.4 27.1859 -74.5661 -57.7154
92 17.4972 2.95289 1.4 27.6236 -105.819 59.384
93 17.9972 2.95289 1.4 28.0634 -250 0
94 18.4972 2.95289 1.4 28.5052 -250 0
95 18.9972 2.95289 1.4 28.9488 -250 0
96 19.4972 2.95289 1.4 29.3943 -250 0
97 19.9972 2.95289 1.4 29.8415 -250 0
98 20.4972 2.95289 1.4 30.2904 -250 0
99 20.9972 2.95289 1.4 30.7408 -98.6354 -25.7789
100 21.4972 2.95289 1.4 31.1927 -93.8911 32.5284
101 21.9972 2.95289 1.4 31.6461 -78.8606 -109.973
102 22.4972 2.95289 1.4 32.1009 -89.7292 46.6171
103 22.9972 2.95289 1.4 32.557 -250 0
104 23.4972 2.95289 1.4 33.0144 -250 0
105 23.9972 2.95289 1.4 33.473 -250 0
106 24.4972 2.95289 1.4 33.9327 -250 0
107 24.9972 2.95289 1.4 34.3936 -250 0
108 25.4972 2.95289 1.4 34.8556 -250 0
109 25.9972 2.95289 1.4 35.3186 -112.847 -36.5735
110 26.4972 2.95289 1.4 35.7825 -94.0478 -65.5487
111 26.9972 2.95289 1.4 36.2475 -79.4293 -126.077
112 27.4972 2.95289 1.4 36.7134 -250 0
113 27.9972 2.95289 1.4 37.1801 -250 0
114 28.4972 2.95289 1.4 37.6477 -250 0
115 28.9972 2.95289 1.4 38.1162 -250 0
116 29.4972 2.95289 1.4 38.5854 -250 0
117 29.9972 2.95289 1.4 39.0554 -250 0
118 30.4972 2.95289 1.4 39.5261 -250 0
119 -28.0028 3.45289 1.4 24.788 -95.0003 36.6456
120 -27.5028 3.45289 1.4 24.3605 -94.5877 -40.6247
121 -27.0028 3.45289 1.4 23.9359 -103.265 -126.516
122 -26.5028 3.45289 1.4 23.5142 -100.692 -170.873
123 -26.0028 3.45289 1.4 23.0956 -106.331 140.288
124 -25.5028 3.45289 1.4 22.6803 -129.711 46.3576
125 -25.0028 3.45289 1.4 22.2685 -130.033 -167.734
126 -24.5028 3.45289 1.4 21.8604 -130.35 -95.6193
127 -24.0028 3.45289 1.4 21.4562 -102.928 -85.713
128 -23.5028 3.45289 1.4 21.0561 -111.137 105.569
129 -23.0028 3.45289 1.4 20.6603 -98.7568 164.322
130 -22.5028 3.45289 1.4 20.2692 -95.4405 -38.0525
131 -22.0028 3.45289 1.4 19.8829 -100.862 154.722
132 -21.5028 3.45289 1.4 19.5018 -97.7248 76.0671
133 -21.0028 3.45289 1.4 19.1262 -113.13 -51.3206
134 -20.5028 3.45289 1.4 18.7563 -98.1837 -142.514
135 -20.0028 3.45289 1.4 18.3927 -96.0046 -97.9746
136 -19.5028 3.45289 1.4 18.0355 -102.555 -29.7336
137 -19.0028 3.45289 1.4 17.6853 -94.3471 20.2086
138 -18.5028 3.45289 1.4 17.3425 -88.2556 -73.5916
139 -18.0028 3.45289 1.4 17.0074 -91.509 65.9109
140 -17.5028 3.45289 1.4 16.6806 -93.0864 -98.0996
141 -17.0028 3.45289 1.4 16.3625 -250 0
142 -16.5028 3.45289 1.4 16.0538 -250 0
143 -16.0028 3.45289 1.4 15.7548 -250 0
144 -15.5028 3.45289 1.4 15.4662 -250 0
145 -15.0028 3.45289 1.4 15.1886 -250 0
146 -14.5028 3.45289 1.4 14.9226 -250 0
147 -14.0028 3.45289 1.4 14.6688 -250 0
148 -13.5028 3.45289 1.4 14.4279 -71.958 145.983
149 -13.0028 3.45289 1.4 14.2005 -68.7917 58.2323
150 -12.5028 3.45289 1.4 13.9874 -68.9223 -22.5778
151 -12.0028 3.45289 1.4 13.789 -69.5513 -139.27
152 -11.5028 3.45289 1.4 13.6061 -84.4154 -102.375
153 -11.0028 3.45289 1.4 13.4394 -73.8482 44.2479
154 -10.5028 3.45289 1.4 13.2894 -71.9246 -85.1757
155 -10.0028 3.45289 1.4 13.1567 -75.3288 -153.129
156 -9.50282 3.45289 1.4 13.0418 -72.5345 79.8771
157 -9.00282 3.45289 1.4 12.9452 -63.729 -177.511
158 -8.50282 3.45289 1.4 12.8674 -63.5238 -93.0144
159 -8.00282 3.45289 1.4 12.8086 -60.6695 -100.089
160 -7.50282 3.45289 1.4 12.7691 -60.9724 -16.4958
161 -7.00282 3.45289 1.4 12.7491 -59.9468 -42.0337
162 -6.50282 3.45289 1.4 12.7487 -59.1904 -88.0849
163 -6.00282 3.45289 1.4 12.768 -67.3973 -90.1258
164 -5.50282 3.45289 1.4 12.8067 -73.2459 113.66
165 -5.00282 3.45289 1.4 12.8647 -82.4209 -45.3539
166 -4.50282 3.45289 1.4 12.9419 -71.2138 -146.058
167 -4.00282 3.45289 1.4 13.0377 -72.6462 -50.8172
168 -3.50282 3.45289 1.4 13.1519 -60.5613 -92.9276
169 -3.00282 3.45289 1.4 13.2839 -61.3941 -125.686
170 -2.50282 3.45289 1.4 13.4333 -57.717 16.5925
171 -2.00282 3.45289 1.4 13.5994 -56.1139 -139.969
172 -1.50282 3.45289 1.4 13.7816 -57.8977 -5.9307
173 -1.00282 3.45289 1.4 13.9794 -66.6789 33.0148
174 -0.50282 3.45289 1.4 14.1921 -67.3537 20.4415
175 -0.00282 3.45289 1.4 14.4189 -64.3162 46.1934
176 0.49718 3.45289 1.4 14.6593 -70.1689 -17.3578
177 0.99718 3.45289 1.4 14.9126 -72.9615 -42.9443
178 1.49718 3.45289 1.4 15.1781 -62.2107 -81.7982
179 1.99718 3.45289 1.4 15.4553 -60.6707 117.191
180 2.49718 3.45289 1.4 15.7435 -66.8348 31.9481
181 2.99718 3.45289 1.4 16.042 -65.022 103.596
182 3.49718 3.45289 1.4 16.3505 -63.7846 -118.023
183 3.99718 3.45289 1.4 16.6682 -72.5791 -122.865
184 4.49718 3.45289 1.4 16.9947 -250 0
185 4.99718 3.45289 1.4 17.3294 -250 0
186 5.49718 3.45289 1.4 17.672 -81.3913 117.726
187 5.99718 3.45289 1.4 18.0219 -65.7989 -150.265
188 6.49718 3.45289 1.4 18.3788 -62.1784 -145.549
189 6.99718 3.45289 1.4 18.7422 -67.8102 144.658
190 7.49718 3.45289 1.4 19.1118 -61.4892 177.896
191 7.99718 3.45289 1.4 19.4872 -63.4706 161.489
192 8.49718 3.45289 1.4 19.8681 -73.7428 115.307
193 8.99718 3.45289 1.4 20.2542 -82.5755 83.3876
194 9.49718 3.45289 1.4 20.6451 -82.8157 24.3593
195 9.99718 3.45289 1.4 21.0407 -250 0
196 10.4972 3.45289 1.4 21.4407 -67.3813 131.265
197 10.9972 3.45289 1.4 21.8447 -66.3253 28.8619
198 11.4972 3.45289 1.4 22.2527 -69.4524 -83.8294
199 11.9972 3.45289 1.4 22.6644 -68.8694 158.972
200 12.4972 3.45289 1.4 23.0795 -75.5569 73.6147
201 12.9972 3.45289 1.4 23.498 -79.7569 -76.1304
202 13.4972 3.45289 1.4 23.9195 -88.9416 157.996
203 13.9972 3.45289 1.4 24.3441 -83.4706 -62.2279
204 14.4972 3.45289 1.4 24.7715 -80.176 -54.3947
205 14.9972 3.45289 1.4 25.2015 -82.0969 138.307
206 15.4972 3.45289 1.4 25.6341 -82.4921 -69.5354
207 15.9972 3.45289 1.4 26.0691 -76.102 49.8655
208 16.4972 3.45289 1.4 26.5064 -79.334 -165.062
209 16.9972 3.45289 1.4 26.9458 -93.5389 -45.9283
210 17.4972 3.45289 1.4 27.3874 -83.4592 20.86
211 17.9972 3.45289 1.4 27.8309 -250 0
212 18.4972 3.45289 1.4 28.2763 -250 0
213 18.9972 3.45289 1.4 28.7235 -250 0
214 19.4972 3.45289 1.4 29.1724 -250 0
215 19.9972 3.45289 1.4 29.623 -99.1867 47.673
216 20.4972 3.45289 1.4 30.0751 -99.6531 67.4804
217 20.9972 3.45289 1.4 30.5287 -98.8485 -134.756
218 21.4972 3.45289 1.4 30.9837 -107.835 -177.183
219 21.9972 3.45289 1.4 31.4401 -105.469 -74.0003
220 22.4972 3.45289 1.4 31.8978 -87.7506 172.412
221 22.9972 3.45289 1.4 32.3568 -102.965 -170.329
222 23.4972 3.45289 1.4 32.8169 -101.722 165.823
223 23.9972 3.45289 1.4 33.2783 -250 0
224 24.4972 3.45289 1.4 33.7407 -250 0
225 24.9972 3.45289 1.4 34.2041 -97.2305 -66.0644
226 25.4972 3.45289 1.4 34.6686 -96.9828 -9.61958
227 25.9972 3.45289 1.4 35.1341 -93.9988 108.823
228 26.4972 3.45289 1.4 35.6005 -96.2558 162.159
229 26.9972 3.45289 1.4 36.0678 -112.958 21.2592
230 27.4972 3.45289 1.4 36.5359 -250 0
231 27.9972 3.45289 1.4 37.0049 -250 0
232 28.4972 3.45289 1.4 37.4747 -250 0
233 28.9972 3.45289 1.4 37.9453 -250 0
234 29.4972 3.45289 1.4 38.4166 -250 0
235 29.9972 3.45289 1.4 38.8886 -250 0
236 30.4972 3.45289 1.4 39.3614 -250 0
237 -28.0028 3.95289 1.4 24.5346 -118.263 -7.38558
238 -27.5028 3.95289 1.4 24.1027 -106.494 -144.093
239 -27.0028 3.95289 1.4 23.6734 -113.541 179.333
240 -26.5028 3.95289 1.4 23.2469 -94.4406 -146.241
241 -26.0028 3.95289 1.4 22.8234 -93.0941 -24.5158
242 -25.5028 3.95289 1.4 22.4031 -106.438 69.7971
243 -25.0028 3.95289 1.4 21.9861 -129.835 89.019
244 -24.5028 3.95289 1.4 21.5727 -130.17 124.798
245 -24.0028 3.95289 1.4 21.163 -109.22 -130.038
246 -23.5028 3.95289 1.4 20.7572 -105.811 150.735
247 -23.0028 3.95289 1.4 20.3556 -101.48 -152.948
248 -22.5028 3.95289 1.4 19.9585 -102.742 28.6942
249 -22.0028 3.95289 1.4 19.5661 -99.0706 -172.655
250 -21.5028 3.95289 1.4 19.1787 -97.559 18.7894
251 -21.0028 3.95289 1.4 18.7966 -101.155 -47.5731
252 -20.5028 3.95289 1.4 18.4202 -94.3956 9.54185
253 -20.0028 3.95289 1.4 18.0498 -105.839 50.6658
254 -19.5028 3.95289 1.4 17.6857 -99.4582 -49.8669
255 -19.0028 3.95289 1.4 17.3284 -94.0749 -137.865
256 -18.5028 3.95289 1.4 16.9784 -103.941 -140.701
257 -18.0028 3.95289 1.4 16.636 -250 0
258 -17.5028 3.95289 1.4 16.3017 -98.7131 4.28243
259 -17.0028 3.95289 1.4 15.9761 -250 0
260 -16.5028 3.95289 1.4 15.6597 -250 0
261 -16.0028 3.95289 1.4 15.3531 -250 0
262 -15.5028 3.95289 1.4 15.0568 -250 0
263 -15.0028 3.95289 1.4 14.7715 -250 0
264 -14.5028 3.95289 1.4 14.4979 -250 0
265 -14.0028 3.95289 1.4 14.2365 -250 0
266 -13.5028 3.95289 1.4 13.9882 -69.8988 -60.4468
267 -13.0028 3.95289 1.4 13.7535 -76.2762 -135.408
268 -12.5028 3.95289 1.4 13.5333 -68.592 73.5389
269 -12.0028 3.95289 1.4 13.3282 -75.3107 -177.896
270 -11.5028 3.95289 1.4 13.1389 -72.9767 -51.4935
271 -11.0028 3.95289 1.4 12.9661 -79.9887 150.174
272 -10.5028 3.95289 1.4 12.8106 -73.1532 -151.802
273 -10.0028 3.95289 1.4 12.6729 -75.5122 47.8382
274 -9.50282 3.95289 1.4 12.5536 -68.7386 -5.27746
275 -9.00282 3.95289 1.4 12.4532 -68.8454 -51.9741
276 -8.50282 3.95289 1.4 12.3722 -58.5096 14.487
277 -8.00282 3.95289 1.4 12.3111 -60.2529 166.567
278 -7.50282 3.95289 1.4 12.27 -57.1044 -144.829
279 -7.00282 3.95289 1.4 12.2492 -60.8899 -178.799
280 -6.50282 3.95289 1.4 12.2488 -59.7423 159.287
281 -6.00282 3.95289 1.4 12.2688 -72.3177 -113.144
282 -5.50282 3.95289 1.4 12.3091 -67.4648 -152.23
283 -5.00282 3.95289 1.4 12.3695 -71.7992 -0.223251
284 -4.50282 3.95289 1.4 12.4497 -79.185 88.049
285 -4.00282 3.95289 1.4 12.5493 -72.9984 -133.494
286 -3.50282 3.95289 1.4 12.6679 -67.07 -126.045
287 -3.00282 3.95289 1.4 12.8049 -61.994 -164.563
288 -2.50282 3.95289 1.4 12.9598 -70.1665 70.2205
289 -2.00282 3.95289 1.4 13.1319 -62.3518 -42.3953
290 -1.50282 3.95289 1.4 13.3206 -57.7676 115.117
291 -1.00282 3.95289 1.4 13.5251 -62.0367 -124.971
292 -0.50282 3.95289 1.4 13.7447 -64.1556 -100.249
293 -0.00282 3.95289 1.4 13.9789 -64.2921 -63.1737
294 0.49718 3.95289 1.4 14.2267 -69.0659 -177.631
295 0.99718 3.95289 1.4 14.4876 -71.4546 108.244
296 1.49718 3.95289 1.4 14.7607 -65.5033 62.2723
297 1.99718 3.95289 1.4 15.0456 -61.0891 -113.058
298 2.49718 3.95289 1.4 15.3415 -64.9112 105.608
299 2.99718 3.95289 1.4 15.6477 -61.3458 105.309
300 3.49718 3.95289 1.4 15.9637 -66.5116 -3.46885
301 3.99718 3.95289 1.4 16.289 -72.4097 141.156
302 4.49718 3.95289 1.4 16.6229 -74.0965 -36.7211
303 4.99718 3.95289 1.4 16.965 -79.3774 -10.0149
304 5.49718 3.95289 1.4 17.3148 -64.7292 132.457
305 5.99718 3.95289 1.4 17.6718 -66.4986 140.584
306 6.49718 3.95289 1.4 18.0356 -65.436 166.835
307 6.99718 3.95289 1.4 18.4058 -64.1808 115.972
308 7.49718 3.95289 1.4 18.782 -62.4919 109.484
309 7.99718 3.95289 1.4 19.1639 -70.2411 -5.6967
310 8.49718 3.95289 1.4 19.5511 -75.7363 -116.887
311 8.99718 3.95289 1.4 19.9433 -83.1278 -104.621
312 9.49718 3.95289 1.4 20.3402 -250 0
313 9.99718 3.95289 1.4 20.7416 -79.5477 164.648
314 10.4972 3.95289 1.4 21.1472 -66.7905 -64.6956
315 10.9972 3.95289 1.4 21.5568 -66.7479 169.651
316 11.4972 3.95289 1.4 21.9701 -73.7899 90.1313
317 11.9972 3.95289 1.4 22.387 -79.0891 -89.4476
318 12.4972 3.95289 1.4 22.8072 -77.6861 114.889
319 12.9972 3.95289 1.4 23.2305 -104.293 -88.472
320 13.4972 3.95289 1.4 23.6569 -84.3373 145.029
321 13.9972 3.95289 1.4 24.0861 -82.6027 -149.866
322 14.4972 3.95289 1.4 24.5179 -83.8516 -2.87672
323 14.9972 3.95289 1.4 24.9523 -79.6821 109.207
324 15.4972 3.95289 1.4 25.3892 -76.9632 -125.067
325 15.9972 3.95289 1.4 25.8283 -73.7828 28.0016
326 16.4972 3.95289 1.4 26.2696 -250 0
327 16.9972 3.95289 1.4 26.7129 -250 0
328 17.4972 3.95289 1.4 27.1583 -250 0
329 17.9972 3.95289 1.4 27.6055 -250 0
330 18.4972 3.95289 1.4 28.0544 -250 0
331 18.9972 3.95289 1.4 28.5051 -94.0977 70.2344
332 19.4972 3.95289 1.4 28.9574 -95.6013 146.362
333 19.9972 3.95289 1.4 29.4113 -98.6259 -5.47996
334 20.4972 3.95289 1.4 29.8666 -97.5832 49.4399
335 20.9972 3.95289 1.4 30.3233 -100.739 -4.69508
336 21.4972 3.95289 1.4 30.7814 -250 0
337 21.9972 3.95289 1.4 31.2407 -98.503 148.464
338 22.4972 3.95289 1.4 31.7013 -105.112 -150.013
339 22.9972 3.95289 1.4 32.1631 -102.431 118.048
340 23.4972 3.95289 1.4 32.626 -99.4635 143.808
341 23.9972 3.95289 1.4 33.09 -103.054 126.053
342 24.4972 3.95289 1.4 33.555 -92.4123 -144.573
343 24.9972 3.95289 1.4 34.021 -109.321 154.53
344 25.4972 3.95289 1.4 34.4879 -85.1038 68.5236
345 25.9972 3.95289 1.4 34.9558 -96.1415 91.4731
346 26.4972 3.95289 1.4 35.4245 -250 0
347 26.9972 3.95289 1.4 35.8941 -250 0
348 27.4972 3.95289 1.4 36.3645 -250 0
349 27.9972 3.95289 1.4 36.8357 -250 0
350 28.4972 3.95289 1.4 37.3076 -250 0
351 28.9972 3.95289 1.4 37.7803 -250 0
352 29.4972 3.95289 1.4 38.2536 -250 0
353 29.9972 3.95289 1.4 38.7276 -250 0
354 30.4972 3.95289 1.4 39.2023 -250 0
355 -28.0028 4.45289 1.4 24.2889 -113.362 -54.5549
356 -27.5028 4.45289 1.4 23.8525 -121.204 -69.2214
357 -27.0028 4.45289 1.4 23.4186 -104.409 -120.004
358 -26.5028 4.45289 1.4 22.9875 -105.474 -165.826
359 -26.0028 4.45289 1.4 22.5591 -104.469 20.0314
360 -25.5028 4.45289 1.4 22.1338 -91.2366 -143.042
361 -25.0028 4.45289 1.4 21.7116 -101.132 65.5095
362 -24.5028 4.45289 1.4 21.2928 -129.99 -36.5868
363 -24.0028 4.45289 1.4 20.8776 -101.098 79.6995
364 -23.5028 4.45289 1.4 20.4662 -104.959 66.4778
365 -23.0028 4.45289 1.4 20.0588 -108.749 162.243
366 -22.5028 4.45289 1.4 19.6557 -111.041 -125.645
367 -22.0028 4.45289 1.4 19.2571 -107.912 -31.8881
368 -21.5028 4.45289 1.4 18.8634 -109.693 94.5773
369 -21.0028 4.45289 1.4 18.4748 -96.8464 -116.371
370 -20.5028 4.45289 1.4 18.0916 -97.4206 85.9914
371 -20.0028 4.45289 1.4 17.7143 -95.7415 167.209
372 -19.5028 4.45289 1.4 17.3432 -94.2696 149.88
373 -19.0028 4.45289 1.4 16.9788 -103.915 82.5036
374 -18.5028 4.45289 1.4 16.6213 -133.302 -104.344
375 -18.0028 4.45289 1.4 16.2714 -250 0
376 -17.5028 4.45289 1.4 15.9295 -105.096 179.196
377 -17.0028 4.45289 1.4 15.5961 -250 0
378 -16.5028 4.45289 1.4 15.2719 -250 0
379 -16.0028 4.45289 1.4 14.9573 -250 0
380 -15.5028 4.45289 1.4 14.653 -250 0
381 -15.0028 4.45289 1.4 14.3597 -250 0
382 -14.5028 4.45289 1.4 14.0781 -250 0
383 -14.0028 4.45289 1.4 13.8088 -250 0
384 -13.5028 4.45289 1.4 13.5526 -71.1537 101.897
385 -13.0028 4.45289 1.4 13.3102 -67.4802 8.76085
386 -12.5028 4.45289 1.4 13.0825 -67.3054 -119.767
387 -12.0028 4.45289 1.4 12.8703 -75.816 -89.5672
388 -11.5028 4.45289 1.4 12.6741 -81.743 40.5747
389 -11.0028 4.45289 1.4 12.495 -72.8864 -175.013
390 -10.5028 4.45289 1.4 12.3335 -84.4396 12.1278
391 -10.0028 4.45289 1.4 12.1904 -72.508 -18.5889
392 -9.50282 4.45289 1.4 12.0663 -74.1548 -100.07
393 -9.00282 4.45289 1.4 11.9618 -77.8377 -145.994
394 -8.50282 4.45289 1.4 11.8775 -73.4393 52.8481
395 -8.00282 4.45289 1.4 11.8138 -62.7688 -94.4295
396 -7.50282 4.45289 1.4 11.771 -62.8372 -30.2487
397 -7.00282 4.45289 1.4 11.7493 -61.1661 34.8902
398 -6.50282 4.45289 1.4 11.7489 -61.871 29.122
399 -6.00282 4.45289 1.4 11.7698 -62.36 -29.7833
400 -5.50282 4.45289 1.4 11.8118 -81.3412 70.565
401 -5.00282 4.45289 1.4 11.8747 -63.0114 130.003
402 -4.50282 4.45289 1.4 11.9582 -70.2335 -27.1056
403 -4.00282 4.45289 1.4 12.0619 -112.959 -168.651
404 -3.50282 4.45289 1.4 12.1852 -68.874 -104.159
405 -3.00282 4.45289 1.4 12.3276 -78.9704 96.0995
406 -2.50282 4.45289 1.4 12.4884 -70.7848 114.008
407 -2.00282 4.45289 1.4 12.6669 -67.0031 -14.5349
408 -1.50282 4.45289 1.4 12.8624 -56.6857 -119.892
409 -1.00282 4.45289 1.4 13.0741 -53.2468 9.42282
410 -0.50282 4.45289 1.4 13.3012 -61.4317 82.6807
411 -0.00282 4.45289 1.4 13.543 -60.0478 138.004
412 0.49718 4.45289 1.4 13.7986 -69.1185 -10.3516
413 0.99718 4.45289 1.4 14.0674 -61.9454 -62.551
414 1.49718 4.45289 1.4 14.3486 -61.955 173.212
415 1.99718 4.45289 1.4 14.6415 -64.7658 -0.587713
416 2.49718 4.45289 1.4 14.9454 -62.3191 73.6446
417 2.99718 4.45289 1.4 15.2596 -70.2573 55.3377
418 3.49718 4.45289 1.4 15.5835 -65.6954 7.4172
419 3.99718 4.45289 1.4 15.9165 -71.7979 37.9382
420 4.49718 4.45289 1.4 16.2581 -70.823 -112.018
421 4.99718 4.45289 1.4 16.6077 -62.9237 53.1447
422 5.49718 4.45289 1.4 16.9648 -63.9041 70.7121
423 5.99718 4.45289 1.4 17.3291 -64.7825 93.628
424 6.49718 4.45289 1.4 17.6999 -65.5938 57.4627
425 6.99718 4.45289 1.4 18.077 -64.0321 -1.53709
426 7.49718 4.45289 1.4 18.4599 -74.3211 -105.715
427 7.99718 4.45289 1.4 18.8483 -67.1846 -113.836
428 8.49718 4.45289 1.4 19.2418 -71.4532 -89.6173
429 8.99718 4.45289 1.4 19.6402 -81.2072 147.452
430 9.49718 4.45289 1.4 20.0432 -88.3477 130.516
431 9.99718 4.45289 1.4 20.4504 -67.573 -122.315
432 10.4972 4.45289 1.4 20.8617 -66.0032 58.525
433 10.9972 4.45289 1.4 21.2767 -73.0413 -33.4245
434 11.4972 4.45289 1.4 21.6954 -79.4731 155.556
435 11.9972 4.45289 1.4 22.1174 -98.8324 169.979
436 12.4972 4.45289 1.4 22.5426 -96.2776 -151.192
437 12.9972 4.45289 1.4 22.9709 -95.2709 -12.5223
438 13.4972 4.45289 1.4 23.402 -79.9105 146.113
439 13.9972 4.45289 1.4 23.8357 -79.5105 -170.4
440 14.4972 4.45289 1.4 24.272 -83.5762 -17.9655
441 14.9972 4.45289 1.4 24.7108 -76.8797 91.2408
442 15.4972 4.45289 1.4 25.1518 -77.031 -67.9864
443 15.9972 4.45289 1.4 25.595 -250 0
444 16.4972 4.45289 1.4 26.0402 -250 0
445 16.9972 4.45289 1.4 26.4874 -250 0
446 17.4972 4.45289 1.4 26.9365 -250 0
447 17.9972 4.45289 1.4 27.3873 -99.6024 87.8653
448 18.4972 4.45289 1.4 27.8398 -102.247 -135.7
449 18.9972 4.45289 1.4 28.2939 -106.075 56.5768
450 19.4972 4.45289 1.4 28.7495 -97.5532 95.3281
451 19.9972 4.45289 1.4 29.2066 -250 0
452 20.4972 4.45289 1.4 29.6651 -100.713 -74.8048
453 20.9972 4.45289 1.4 30.1249 -250 0
454 21.4972 4.45289 1.4 30.5859 -250 0
455 21.9972 4.45289 1.4 31.0482 -250 0
456 22.4972 4.45289 1.4 31.5116 -250 0
457 22.9972 4.45289 1.4 31.9761 -104.734 133.705
458 23.4972 4.45289 1.4 32.4416 -93.9912 177.898
459 23.9972 4.45289 1.4 32.9082 -96.9784 -56.2219
460 24.4972 4.45289 1.4 33.3757 -98.2062 -120.024
461 24.9972 4.45289 1.4 33.8442 -87.8931 -12.3057
462 25.4972 4.45289 1.4 34.3136 -96.0257 20.7815
463 25.9972 4.45289 1.4 34.7838 -250 0
464 26.4972 4.45289 1.4 35.2548 -250 0
465 26.9972 4.45289 1.4 35.7266 -250 0
466 27.4972 4.45289 1.4 36.1992 -250 0
467 27.9972 4.45289 1.4 36.6725 -250 0
468 28.4972 4.45289 1.4 37.1465 -250 0
469 28.9972 4.45289 1.4 37.6212 -250 0
470 29.4972 4.45289 1.4 38.0965 -250 0
471 29.9972 4.45289 1.4 38.5724 -250 0
472 30.4972 4.45289 1.4 39.049 -250 0
473 -28.0028 4.95289 1.4 24.0511 -120.567 -138.537
474 -27.5028 4.95289 1.4 23.6103 -121.732 152.877
475 -27.0028 4.95289 1.4 23.1719 -107.613 -162.214
476 -26.5028 4.95289 1.4 22.736 -106.972 173.147
477 -26.0028 4.95289 1.4 22.3028 -104.147 93.8726
478 -25.5028 4.95289 1.4 21.8725 -96.3305 151.978
479 -25.0028 4.95289 1.4 21.4452 -91.9372 88.1908
480 -24.5028 4.95289 1.4 21.0211 -91.755 -110.584
481 -24.0028 4.95289 1.4 20.6004 -107.871 -29.626
482 -23.5028 4.95289 1.4 20.1834 -105.739 -74.196
483 -23.0028 4.95289 1.4 19.7702 -115.776 153.133
484 -22.5028 4.95289 1.4 19.361 -115.046 -88.4797
485 -22.0028 4.95289 1.4 18.9563 -121.002 -44.8213
486 -21.5028 4.95289 1.4 18.5561 -115.447 40.3946
487 -21.0028 4.95289 1.4 18.161 -109.745 12.4887
488 -20.5028 4.95289 1.4 17.7711 -103.057 24.6099
489 -20.0028 4.95289 1.4 17.3868 -90.3319 45.8371
490 -19.5028 4.95289 1.4 17.0086 -97.2795 122.708
491 -19.0028 4.95289 1.4 16.6368 -129.932 -83.5025
492 -18.5028 4.95289 1.4 16.2718 -135.636 -131.282
493 -18.0028 4.95289 1.4 15.9142 -250 0
494 -17.5028 4.95289 1.4 15.5645 -250 0
495 -17.0028 4.95289 1.4 15.2231 -250 0
496 -16.5028 4.95289 1.4 14.8907 -250 0
497 -16.0028 4.95289 1.4 14.5679 -250 0
498 -15.5028 4.95289 1.4 14.2553 -250 0
499 -15.0028 4.95289 1.4 13.9537 -250 0
500 -14.5028 4.95289 1.4 13.6636 -250 0
501 -14.0028 4.95289 1.4 13.386 -250 0
502 -13.5028 4.95289 1.4 13.1216 -67.517 -83.5531
503 -13.0028 4.95289 1.4 12.8711 -67.9078 141.212
504 -12.5028 4.95289 1.4 12.6355 -79.9242 74.8963
505 -12.0028 4.95289 1.4 12.4156 -83.9632 177.539
506 -11.5028 4.95289 1.4 12.2122 -76.8065 110.021
507 -11.0028 4.95289 1.4 12.0261 -70.8601 -173.581
508 -10.5028 4.95289 1.4 11.8582 -68.9747 141.609
509 -10.0028 4.95289 1.4 11.7093 -71.7488 170.91
510 -9.50282 4.95289 1.4 11.5801 -67.1833 153.233
511 -9.00282 4.95289 1.4 11.4712 -71.3989 -33.4601
512 -8.50282 4.95289 1.4 11.3833 -63.1643 125.842
513 -8.00282 4.95289 1.4 11.3168 -70.5627 110.464
514 -7.50282 4.95289 1.4 11.2721 -58.0449 -170.612
515 -7.00282 4.95289 1.4 11.2495 -56.1634 -89.8207
516 -6.50282 4.95289 1.4 11.249 -63.4567 -103.912
517 -6.00282 4.95289 1.4 11.2708 -60.6052 -149.625
518 -5.50282 4.95289 1.4 11.3147 -79.6094 35.424
519 -5.00282 4.95289 1.4 11.3803 -65.3752 61.7401
520 -4.50282 4.95289 1.4 11.4674 -66.1679 45.2139
521 -4.00282 4.95289 1.4 11.5755 -115.444 153.863
522 -3.50282 4.95289 1.4 11.704 -71.5774 -116.324
523 -3.00282 4.95289 1.4 11.8521 -68.7752 18.5132
524 -2.50282 4.95289 1.4 12.0193 -76.6102 -163.901
525 -2.00282 4.95289 1.4 12.2047 -74.8572 145.784
526 -1.50282 4.95289 1.4 12.4074 -63.6728 -11.5337
527 -1.00282 4.95289 1.4 12.6267 -55.5143 155.236
528 -0.50282 4.95289 1.4 12.8618 -57.5976 -88.1914
529 -0.00282 4.95289 1.4 13.1117 -59.8926 -50.0069
530 0.49718 4.95289 1.4 13.3756 -66.8573 -157.272
531 0.99718 4.95289 1.4 13.6527 -61.1025 62.8991
532 1.49718 4.95289 1.4 13.9423 -61.5548 -91.4997
533 1.99718 4.95289 1.4 14.2435 -75.0609 81.2393
534 2.49718 4.95289 1.4 14.5557 -80.0543 -101.96
535 2.99718 4.95289 1.4 14.8781 -70.7847 -7.05846
536 3.49718 4.95289 1.4 15.2101 -65.35 11.4762
537 3.99718 4.95289 1.4 15.5512 -77.5577 -174.101
538 4.49718 4.95289 1.4 15.9006 -68.6902 15.9677
539 4.99718 4.95289 1.4 16.2579 -62.5612 0.402338
540 5.49718 4.95289 1.4 16.6226 -64.9492 33.9272
541 5.99718 4.95289 1.4 16.9941 -64.6392 -21.7519
542 6.49718 4.95289 1.4 17.3721 -250 0
543 6.99718 4.95289 1.4 17.7561 -75.3705 140.429
544 7.49718 4.95289 1.4 18.1458 -83.6676 50.5318
545 7.99718 4.95289 1.4 18.5408 -250 0
546 8.49718 4.95289 1.4 18.9407 -67.7925 -59.3933
547 8.99718 4.95289 1.4 19.3453 -73.3949 170.835
548 9.49718 4.95289 1.4 19.7543 -72.1824 152.934
549 9.99718 4.95289 1.4 20.1674 -74.8856 -173.928
550 10.4972 4.95289 1.4 20.5843 -72.7122 145.898
551 10.9972 4.95289 1.4 21.0048 -89.6159 99.6678
552 11.4972 4.95289 1.4 21.4288 -250 0
553 11.9972 4.95289 1.4 21.856 -250 0
554 12.4972 4.95289 1.4 22.2862 -250 0
555 12.9972 4.95289 1.4 22.7193 -96.5091 123.072
556 13.4972 4.95289 1.4 23.155 -89.156 138.934
557 13.9972 4.95289 1.4 23.5933 -83.1405 -161.905
558 14.4972 4.95289 1.4 24.0341 -89.5842 134.013
559 14.9972 4.95289 1.4 24.4771 -250 0
560 15.4972 4.95289 1.4 24.9222 -250 0
561 15.9972 4.95289 1.4 25.3694 -250 0
562 16.4972 4.95289 1.4 25.8185 -250 0
563 16.9972 4.95289 1.4 26.2695 -250 0
564 17.4972 4.95289 1.4 26.7222 -250 0
565 17.9972 4.95289 1.4 27.1766 -105.815 123.025
566 18.4972 4.95289 1.4 27.6326 -250 0
567 18.9972 4.95289 1.4 28.09 -250 0
568 19.4972 4.95289 1.4 28.5489 -250 0
569 19.9972 4.95289 1.4 29.0091 -100.69 -144.855
570 20.4972 4.95289 1.4 29.4707 -250 0
571 20.9972 4.95289 1.4 29.9334 -250 0
572 21.4972 4.95289 1.4 30.3974 -250 0
573 21.9972 4.95289 1.4 30.8625 -250 0
574 22.4972 4.95289 1.4 31.3286 -250 0
575 22.9972 4.95289 1.4 31.7958 -250 0
576 23.4972 4.95289 1.4 32.2639 -104.335 57.1325
577 23.9972 4.95289 1.4 32.7331 -93.7028 101.956
578 24.4972 4.95289 1.4 33.2031 -81.515 15.6961
579 24.9972 4.95289 1.4 33.6739 -250 0
580 25.4972 4.95289 1.4 34.1456 -250 0
581 25.9972 4.95289 1.4 34.6181 -250 0
582 26.4972 4.95289 1.4 35.0914 -250 0
583 26.9972 4.95289 1.4 35.5654 -250 0
584 27.4972 4.95289 1.4 36.0401 -250 0
585 27.9972 4.95289 1.4 36.5154 -250 0
586 28.4972 4.95289 1.4 36.9914 -250 0
587 28.9972 4.95289 1.4 37.4681 -250 0
588 29.4972 4.95289 1.4 37.9453 -250 0
589 29.9972 4.95289 1.4 38.4231 -250 0
590 30.4972 4.95289 1.4 38.9015 -250 0
591 -28.0028 5.45289 1.4 23.8214 -126.625 -27.6091
592 -27.5028 5.45289 1.4 23.3763 -117.56 104.58
593 -27.0028 5.45289 1.4 22.9334 -109.15 140.414
594 -26.5028 5.45289 1.4 22.4929 -111.103 140.94
595 -26.0028 5.45289 1.4 22.0549 -107.796 99.318
596 -25.5028 5.45289 1.4 21.6197 -103.879 30.6008
597 -25.0028 5.45289 1.4 21.1873 -99.1895 52.8102
598 -24.5028 5.45289 1.4 20.7579 -105.444 153.424
599 -24.0028 5.45289 1.4 20.3318 -102.417 -177.895
600 -23.5028 5.45289 1.4 19.9091 -109.558 131.83
601 -23.0028 5.45289 1.4 19.4901 -108.345 65.906
602 -22.5028 5.45289 1.4 19.0749 -111.935 149.502
603 -22.0028 5.45289 1.4 18.664 -114.137 164.264
604 -21.5028 5.45289 1.4 18.2574 -113.677 132.187
605 -21.0028 5.45289 1.4 17.8556 -117.973 168.14
606 -20.5028 5.45289 1.4 17.4589 -85.6077 -32.9426
607 -20.0028 5.45289 1.4 17.0677 -103.257 -44.4507
608 -19.5028 5.45289 1.4 16.6822 -106.902 72.1147
609 -19.0028 5.45289 1.4 16.3029 -130.535 -94.1174
610 -18.5028 5.45289 1.4 15.9303 -139.826 -143.568
611 -18.0028 5.45289 1.4 15.5649 -250 0
612 -17.5028 5.45289 1.4 15.2071 -250 0
613 -17.0028 5.45289 1.4 14.8576 -250 0
614 -16.5028 5.45289 1.4 14.5168 -250 0
615 -16.0028 5.45289 1.4 14.1855 -250 0
616 -15.5028 5.45289 1.4 13.8643 -250 0
617 -15.0028 5.45289 1.4 13.5539 -250 0
618 -14.5028 5.45289 1.4 13.2551 -250 0
619 -14.0028 5.45289 1.4 12.9688 -250 0
620 -13.5028 5.45289 1.4 12.6956 -66.1558 47.2312
621 -13.0028 5.45289 1.4 12.4366 -80.7595 -23.2292
622 -12.5028 5.45289 1.4 12.1926 -91.3721 -122.509
623 -12.0028 5.45289 1.4 11.9645 -78.1523 -89.1549
624 -11.5028 5.45289 1.4 11.7533 -81.9238 54.978
625 -11.0028 5.45289 1.4 11.5599 -80.1294 -154.962
626 -10.5028 5.45289 1.4 11.3851 -73.016 134.071
627 -10.0028 5.45289 1.4 11.23 -63.4538 106.291
628 -9.50282 5.45289 1.4 11.0951 -77.4314 68.2515
629 -9.00282 5.45289 1.4 10.9815 -73.5723 -7.29598
630 -8.50282 5.45289 1.4 10.8896 -63.1917 136.467
631 -8.00282 5.45289 1.4 10.82 -66.1072 56.1498
632 -7.50282 5.45289 1.4 10.7733 -62.9558 -50.9517
633 -7.00282 5.45289 1.4 10.7496 -60.2099 54.3613
634 -6.50282 5.45289 1.4 10.7492 -59.8551 80.9057
635 -6.00282 5.45289 1.4 10.7719 -62.3697 58.508
636 -5.50282 5.45289 1.4 10.8178 -59.4487 35.2668
637 -5.00282 5.45289 1.4 10.8865 -77.4061 28.9742
638 -4.50282 5.45289 1.4 10.9775 -69.2959 5.52987
639 -4.00282 5.45289 1.4 11.0904 -68.1888 -2.68022
640 -3.50282 5.45289 1.4 11.2244 -79.9545 -173.469
641 -3.00282 5.45289 1.4 11.3788 -75.6661 -65.3816
642 -2.50282 5.45289 1.4 11.5528 -69.2545 -107.139
643 -2.00282 5.45289 1.4 11.7455 -65.9927 -23.138
644 -1.50282 5.45289 1.4 11.9561 -58.0771 34.0484
645 -1.00282 5.45289 1.4 12.1835 -59.5352 -109.544
646 -0.50282 5.45289 1.4 12.4269 -55.6996 28.403
647 -0.00282 5.45289 1.4 12.6854 -55.9673 161.94
648 0.49718 5.45289 1.4 12.958 -62.1514 -40.595
649 0.99718 5.45289 1.4 13.2439 -60.4365 -179.489
650 1.49718 5.45289 1.4 13.5422 -66.7656 -1.59959
651 1.99718 5.45289 1.4 13.8521 -250 0
652 2.49718 5.45289 1.4 14.1729 -250 0
653 2.99718 5.45289 1.4 14.5038 -71.7991 110.231
654 3.49718 5.45289 1.4 14.8442 -76.6865 -126.643
655 3.99718 5.45289 1.4 15.1935 -64.312 -73.8787
656 4.49718 5.45289 1.4 15.551 -63.9615 -63.7572
657 4.99718 5.45289 1.4 15.9161 -61.9621 -74.9644
658 5.49718 5.45289 1.4 16.2884 -67.9475 -94.2813
659 5.99718 5.45289 1.4 16.6674 -250 0
660 6.49718 5.45289 1.4 17.0527 -250 0
661 6.99718 5.45289 1.4 17.4437 -76.5427 -40.3305
662 7.49718 5.45289 1.4 17.8402 -250 0
663 7.99718 5.45289 1.4 18.2418 -250 0
664 8.49718 5.45289 1.4 18.6482 -87.5991 51.8709
665 8.99718 5.45289 1.4 19.059 -63.9436 75.8126
666 9.49718 5.45289 1.4 19.474 -65.7557 178.777
667 9.99718 5.45289 1.4 19.8929 -74.5113 -134.622
668 10.4972 5.45289 1.4 20.3154 -89.6488 21.1687
669 10.9972 5.45289 1.4 20.7414 -250 0
670 11.4972 5.45289 1.4 21.1707 -250 0
671 11.9972 5.45289 1.4 21.603 -250 0
672 12.4972 5.45289 1.4 22.0381 -250 0
673 12.9972 5.45289 1.4 22.476 -250 0
674 13.4972 5.45289 1.4 22.9163 -250 0
675 13.9972 5.45289 1.4 23.3591 -87.2604 78.3577
676 14.4972 5.45289 1.4 23.8042 -250 0
677 14.9972 5.45289 1.4 24.2514 -250 0
678 15.4972 5.45289 1.4 24.7006 -250 0
679 15.9972 5.45289 1.4 25.1517 -250 0
680 16.4972 5.45289 1.4 25.6047 -250 0
681 16.9972 5.45289 1.4 26.0594 -250 0
682 17.4972 5.45289 1.4 26.5157 -250 0
683 17.9972 5.45289 1.4 26.9735 -76.0688 33.1618
684 18.4972 5.45289 1.4 27.4329 -77.2229 167.767
685 18.9972 5.45289 1.4 27.8936 -250 0
686 19.4972 5.45289 1.4 28.3557 -101.972 -156.825
687 19.9972 5.45289 1.4 28.819 -250 0
688 20.4972 5.45289 1.4 29.2835 -250 0
689 20.9972 5.45289 1.4 29.7492 -250 0
690 21.4972 5.45289 1.4 30.216 -250 0
691 21.9972 5.45289 1.4 30.6838 -250 0
692 22.4972 5.45289 1.4 31.1526 -250 0
693 22.9972 5.45289 1.4 31.6224 -250 0
694 23.4972 5.45289 1.4 32.0931 -250 0
695 23.9972 5.45289 1.4 32.5646 -103.914 -19.7524
696 24.4972 5.45289 1.4 33.037 -82.2063 38.7831
697 24.9972 5.45289 1.4 33.5103 -250 0
698 25.4972 5.45289 1.4 33.9842 -250 0
699 25.9972 5.45289 1.4 34.4589 -250 0
700 26.4972 5.45289 1.4 34.9343 -250 0
701 26.9972 5.45289 1.4 35.4104 -250 0
702 27.4972 5.45289 1.4 35.8872 -250 0
703 27.9972 5.45289 1.4 36.3645 -250 0
704 28.4972 5.45289 1.4 36.8425 -250 0
705 28.9972 5.45289 1.4 37.321 -250 0
706 29.4972 5.45289 1.4 37.8001 -250 0
707 29.9972 5.45289 1.4 38.2798 -250 0
708 30.4972 5.45289 1.4 38.7599 -250 0
709 -28.0028 5.95289 1.4 23.6001 -126.199 4.94925
710 -27.5028 5.95289 1.4 23.1507 -126.687 166.712
711 -27.0028 5.95289 1.4 22.7034 -115.284 63.733
712 -26.5028 5.95289 1.4 22.2583 -120.051 105.346
713 -26.0028 5.95289 1.4 21.8157 -112.442 83.5103
714 -25.5028 5.95289 1.4 21.3756 -100.708 -26.7262
715 -25.0028 5.95289 1.4 20.9381 -85.7954 -7.27882
716 -24.5028 5.95289 1.4 20.5035 -103.187 -159.531
717 -24.0028 5.95289 1.4 20.072 -99.5642 44.188
718 -23.5028 5.95289 1.4 19.6437 -109.867 80.4932
719 -23.0028 5.95289 1.4 19.2189 -115.871 -56.6175
720 -22.5028 5.95289 1.4 18.7978 -109.659 171.982
721 -22.0028 5.95289 1.4 18.3806 -110.593 -152.547
722 -21.5028 5.95289 1.4 17.9677 -114.089 -173.676
723 -21.0028 5.95289 1.4 17.5593 -115.797 -131.665
724 -20.5028 5.95289 1.4 17.1557 -92.8725 -105.999
725 -20.0028 5.95289 1.4 16.7573 -88.5188 -110.5
726 -19.5028 5.95289 1.4 16.3646 -105.628 102.909
727 -19.0028 5.95289 1.4 15.9778 -91.5893 -176.609
728 -18.5028 5.95289 1.4 15.5974 -134.848 -134.838
729 -18.0028 5.95289 1.4 15.224 -250 0
730 -17.5028 5.95289 1.4 14.858 -250 0
731 -17.0028 5.95289 1.4 14.5 -250 0
732 -16.5028 5.95289 1.4 14.1506 -250 0
733 -16.0028 5.95289 1.4 13.8105 -250 0
734 -15.5028 5.95289 1.4 13.4804 -250 0
735 -15.0028 5.95289 1.4 13.161 -250 0
736 -14.5028 5.95289 1.4 12.8531 -250 0
737 -14.0028 5.95289 1.4 12.5576 -250 0
738 -13.5028 5.95289 1.4 12.2753 -79.4343 -145.986
739 -13.0028 5.95289 1.4 12.0072 -85.9855 -66.8283
740 -12.5028 5.95289 1.4 11.7543 -87.6608 -98.1394
741 -12.0028 5.95289 1.4 11.5176 -87.1038 13.571
742 -11.5028 5.95289 1.4 11.298 -70.0872 167.071
743 -11.0028 5.95289 1.4 11.0966 -80.1413 -38.8432
744 -10.5028 5.95289 1.4 10.9144 -73.1102 34.6694
745 -10.0028 5.95289 1.4 10.7525 -72.5524 119.284
746 -9.50282 5.95289 1.4 10.6116 -68.8662 -83.3358
747 -9.00282 5.95289 1.4 10.4927 -73.1147 -162.641
748 -8.50282 5.95289 1.4 10.3965 -60.7809 156.309
749 -8.00282 5.95289 1.4 10.3236 -65.1742 41.5354
750 -7.50282 5.95289 1.4 10.2746 -66.9428 154.48
751 -7.00282 5.95289 1.4 10.2498 -63.3982 -153.075
752 -6.50282 5.95289 1.4 10.2493 -57.3684 -26.9234
753 -6.00282 5.95289 1.4 10.2732 -59.1649 -70.8212
754 -5.50282 5.95289 1.4 10.3213 -60.3176 -74.8061
755 -5.00282 5.95289 1.4 10.3932 -72.4678 -140.408
756 -4.50282 5.95289 1.4 10.4885 -69.4457 -59.9531
757 -4.00282 5.95289 1.4 10.6066 -69.1406 -64.2284
758 -3.50282 5.95289 1.4 10.7466 -70.8659 105.75
759 -3.00282 5.95289 1.4 10.9078 -69.324 -129.979
760 -2.50282 5.95289 1.4 11.0892 -66.2458 -158.907
761 -2.00282 5.95289 1.4 11.2899 -62.7389 -123.812
762 -1.50282 5.95289 1.4 11.5088 -65.9995 -135.406
763 -1.00282 5.95289 1.4 11.7449 -73.5516 -16.292
764 -0.50282 5.95289 1.4 11.9972 -56.9564 154.673
765 -0.00282 5.95289 1.4 12.2647 -54.2061 -49.1687
766 0.49718 5.95289 1.4 12.5464 -59.4691 73.442
767 0.99718 5.95289 1.4 12.8415 -65.1273 -95.2938
768 1.49718 5.95289 1.4 13.1489 -85.626 162.781
769 1.99718 5.95289 1.4 13.4679 -250 0
770 2.49718 5.95289 1.4 13.7976 -250 0
771 2.99718 5.95289 1.4 14.1374 -71.5483 50.728
772 3.49718 5.95289 1.4 14.4864 -65.3468 138.917
773 3.99718 5.95289 1.4 14.844 -62.8715 -133.559
774 4.49718 5.95289 1.4 15.2097 -64.037 -133.584
775 4.99718 5.95289 1.4 15.5829 -62.3879 169.392
776 5.49718 5.95289 1.4 15.963 -73.5819 -33.9732
777 5.99718 5.95289 1.4 16.3495 -73.5466 153.934
778 6.49718 5.95289 1.4 16.7421 -250 0
779 6.99718 5.95289 1.4 17.1402 -250 0
780 7.49718 5.95289 1.4 17.5436 -250 0
781 7.99718 5.95289 1.4 17.9518 -250 0
782 8.49718 5.95289 1.4 18.3646 -64.8619 28.7778
783 8.99718 5.95289 1.4 18.7816 -67.5421 132.972
784 9.49718 5.95289 1.4 19.2026 -73.7926 73.682
785 9.99718 5.95289 1.4 19.6273 -80.8637 60.4433
786 10.4972 5.95289 1.4 20.0554 -93.5065 -161.834
787 10.9972 5.95289 1.4 20.4868 -89.4091 120.928
788 11.4972 5.95289 1.4 20.9213 -88.2123 -83.1268
789 11.9972 5.95289 1.4 21.3586 -87.3118 -59.9575
790 12.4972 5.95289 1.4 21.7987 -86.6258 -51.15
791 12.9972 5.95289 1.4 22.2412 -86.1179 -56.0652
792 13.4972 5.95289 1.4 22.6862 -91.2846 133.315
793 13.9972 5.95289 1.4 23.1334 -250 0
794 14.4972 5.95289 1.4 23.5827 -250 0
795 14.9972 5.95289 1.4 24.034 -250 0
796 15.4972 5.95289 1.4 24.4872 -250 0
797 15.9972 5.95289 1.4 24.9422 -250 0
798 16.4972 5.95289 1.4 25.3989 -250 0
799 16.9972 5.95289 1.4 25.8572 -250 0
800 17.4972 5.95289 1.4 26.317 -250 0
801 17.9972 5.95289 1.4 26.7783 -90.0473 104.759
802 18.4972 5.95289 1.4 27.2409 -85.9518 -28.0731
803 18.9972 5.95289 1.4 27.7048 -72.9998 35.8187
804 19.4972 5.95289 1.4 28.17 -78.4578 156.941
805 19.9972 5.95289 1.4 28.6363 -250 0
806 20.4972 5.95289 1.4 29.1037 -250 0
807 20.9972 5.95289 1.4 29.5722 -250 0
808 21.4972 5.95289 1.4 30.0418 -250 0
809 21.9972 5.95289 1.4 30.5123 -250 0
810 22.4972 5.95289 1.4 30.9837 -250 0
811 22.9972 5.95289 1.4 31.456 -250 0
812 23.4972 5.95289 1.4 31.9291 -250 0
813 23.9972 5.95289 1.4 32.4031 -105.879 -96.16
814 24.4972 5.95289 1.4 32.8778 -86.9944 -45.9007
815 24.9972 5.95289 1.4 33.3533 -250 0
816 25.4972 5.95289 1.4 33.8294 -250 0
817 25.9972 5.95289 1.4 34.3063 -250 0
818 26.4972 5.95289 1.4 34.7838 -250 0
819 26.9972 5.95289 1.4 35.2619 -250 0
820 27.4972 5.95289 1.4 35.7406 -250 0
821 27.9972 5.95289 1.4 36.2199 -250 0
822 28.4972 5.95289 1.4 36.6998 -250 0
823 28.9972 5.95289 1.4 37.1801 -250 0
824 29.4972 5.95289 1.4 37.661 -250 0
825 29.9972 5.95289 1.4 38.1424 -250 0
826 30.4972 5.95289 1.4 38.6243 -250 0
827 -28.0028 6.45289 1.4 23.3873 -125.737 36.4274
828 -27.5028 6.45289 1.4 22.9337 -126.279 176.907
829 -27.0028 6.45289 1.4 22.4821 -117.944 9.07046
830 -26.5028 6.45289 1.4 22.0326 -118.541 -147.423
831 -26.0028 6.45289 1.4 21.5854 -100.967 -163.037
832 -25.5028 6.45289 1.4 21.1404 -84.1732 -115.438
833 -25.0028 6.45289 1.4 20.698 -105.404 61.3716
834 -24.5028 6.45289 1.4 20.2583 -101.831 108.33
835 -24.0028 6.45289 1.4 19.8214 -102.314 -158.682
836 -23.5028 6.45289 1.4 19.3876 -101.443 -112.567
837 -23.0028 6.45289 1.4 18.957 -106.38 -123.842
838 -22.5028 6.45289 1.4 18.53 -114.248 134.597
839 -22.0028 6.45289 1.4 18.1066 -111.164 -149.391
840 -21.5028 6.45289 1.4 17.6873 -115.193 -168.829
841 -21.0028 6.45289 1.4 17.2723 -84.0647 92.3886
842 -20.5028 6.45289 1.4 16.8618 -86.8142 63.5649
843 -20.0028 6.45289 1.4 16.4564 -84.7624 -90.721
844 -19.5028 6.45289 1.4 16.0562 -88.3447 149.381
845 -19.0028 6.45289 1.4 15.6618 -98.9317 12.4014
846 -18.5028 6.45289 1.4 15.2736 -97.4993 92.1043
847 -18.0028 6.45289 1.4 14.8921 -250 0
848 -17.5028 6.45289 1.4 14.5177 -250 0
849 -17.0028 6.45289 1.4 14.1511 -250 0
850 -16.5028 6.45289 1.4 13.7929 -250 0
851 -16.0028 6.45289 1.4 13.4438 -250 0
852 -15.5028 6.45289 1.4 13.1044 -250 0
853 -15.0028 6.45289 1.4 12.7756 -250 0
854 -14.5028 6.45289 1.4 12.4582 -250 0
855 -14.0028 6.45289 1.4 12.153 -250 0
856 -13.5028 6.45289 1.4 11.8611 -84.0444 3.83044
857 -13.0028 6.45289 1.4 11.5835 -80.7362 61.6139
858 -12.5028 6.45289 1.4 11.3211 -75.9942 -106.421
859 -12.0028 6.45289 1.4 11.0751 -71.5505 5.62016
860 -11.5028 6.45289 1.4 10.8466 -72.056 16.7629
861 -11.0028 6.45289 1.4 10.6366 -67.9859 -24.3907
862 -10.5028 6.45289 1.4 10.4465 -75.447 45.2263
863 -10.0028 6.45289 1.4 10.2771 -78.3257 21.9837
864 -9.50282 6.45289 1.4 10.1296 -83.8518 -46.7898
865 -9.00282 6.45289 1.4 10.005 -79.9576 37.8157
866 -8.50282 6.45289 1.4 9.90404 -75.59 -29.3681
867 -8.00282 6.45289 1.4 9.82753 -66.6172 3.9575
868 -7.50282 6.45289 1.4 9.77603 -67.4345 109.572
869 -7.00282 6.45289 1.4 9.74993 -74.9043 -161.947
870 -6.50282 6.45289 1.4 9.74943 -61.1812 92.0741
871 -6.00282 6.45289 1.4 9.77455 -58.6074 135.175
872 -5.50282 6.45289 1.4 9.82508 -60.6522 141.314
873 -5.00282 6.45289 1.4 9.90063 -58.5404 87.8112
874 -4.50282 6.45289 1.4 10.0006 -84.8027 -131.414
875 -4.00282 6.45289 1.4 10.1244 -71.7855 -134.07
876 -3.50282 6.45289 1.4 10.271 -75.4089 -44.5275
877 -3.00282 6.45289 1.4 10.4395 -72.5077 -23.4027
878 -2.50282 6.45289 1.4 10.6289 -82.4471 33.953
879 -2.00282 6.45289 1.4 10.8381 -65.9835 81.3212
880 -1.50282 6.45289 1.4 11.0659 -62.0026 33.2522
881 -1.00282 6.45289 1.4 11.3113 -65.9763 -31.9392
882 -0.50282 6.45289 1.4 11.5731 -62.9091 -122.156
883 -0.00282 6.45289 1.4 11.8502 -56.0717 45.3127
884 0.49718 6.45289 1.4 12.1415 -63.6974 -171.343
885 0.99718 6.45289 1.4 12.4462 -64.2417 -149.346
886 1.49718 6.45289 1.4 12.7631 -84.3856 -47.794
887 1.99718 6.45289 1.4 13.0915 -250 0
888 2.49718 6.45289 1.4 13.4305 -68.4984 -92.036
889 2.99718 6.45289 1.4 13.7793 -61.0164 91.2399
890 3.49718 6.45289 1.4 14.1371 -60.3026 112.079
891 3.99718 6.45289 1.4 14.5034 -62.8325 150.93
892 4.49718 6.45289 1.4 14.8775 -64.2137 101.409
893 4.99718 6.45289 1.4 15.2588 -80.7545 -73.3563
894 5.49718 6.45289 1.4 15.6467 -72.6832 -133.127
895 5.99718 6.45289 1.4 16.0409 -73.9058 61.1137
896 6.49718 6.45289 1.4 16.4408 -77.0369 -144.858
897 6.99718 6.45289 1.4 16.8461 -250 0
898 7.49718 6.45289 1.4 17.2563 -250 0
899 7.99718 6.45289 1.4 17.6712 -65.4018 -44.1715
900 8.49718 6.45289 1.4 18.0904 -63.2649 47.1402
901 8.99718 6.45289 1.4 18.5136 -78.6932 -59.111
902 9.49718 6.45289 1.4 18.9405 -72.1671 -44.2877
903 9.99718 6.45289 1.4 19.3709 -67.9709 118.975
904 10.4972 6.45289 1.4 19.8046 -71.53 -102.896
905 10.9972 6.45289 1.4 20.2414 -85.9404 -152.051
906 11.4972 6.45289 1.4 20.681 -82.2972 -150.898
907 11.9972 6.45289 1.4 21.1233 -86.6363 -150.566
908 12.4972 6.45289 1.4 21.5681 -90.8809 51.5338
909 12.9972 6.45289 1.4 22.0153 -90.1015 71.5476
910 13.4972 6.45289 1.4 22.4648 -73.2093 -157.5
911 13.9972 6.45289 1.4 22.9163 -250 0
912 14.4972 6.45289 1.4 23.3698 -250 0
913 14.9972 6.45289 1.4 23.8251 -250 0
914 15.4972 6.45289 1.4 24.2822 -250 0
915 15.9972 6.45289 1.4 24.741 -250 0
916 16.4972 6.45289 1.4 25.2013 -250 0
917 16.9972 6.45289 1.4 25.6632 -250 0
918 17.4972 6.45289 1.4 26.1264 -250 0
919 17.9972 6.45289 1.4 26.591 -88.8891 -95.4536
920 18.4972 6.45289 1.4 27.0568 -91.052 -160.512
921 18.9972 6.45289 1.4 27.5238 -89.562 151.918
922 19.4972 6.45289 1.4 27.992 -74.4316 -53.7971
923 19.9972 6.45289 1.4 28.4612 -73.0886 69.5538
924 20.4972 6.45289 1.4 28.9315 -83.4489 172.48
925 20.9972 6.45289 1.4 29.4027 -250 0
926 21.4972 6.45289 1.4 29.8749 -250 0
927 21.9972 6.45289 1.4 30.348 -250 0
928 22.4972 6.45289 1.4 30.8219 -250 0
929 22.9972 6.45289 1.4 31.2967 -250 0
930 23.4972 6.45289 1.4 31.7722 -86.0737 -115.621
931 23.9972 6.45289 1.4 32.2485 -73.9408 -48.5446
932 24.4972 6.45289 1.4 32.7254 -82.7287 108.847
933 24.9972 6.45289 1.4 33.2031 -250 0
934 25.4972 6.45289 1.4 33.6814 -250 0
935 25.9972 6.45289 1.4 34.1603 -250 0
936 26.4972 6.45289 1.4 34.6398 -250 0
937 26.9972 6.45289 1.4 35.1199 -250 0
938 27.4972 6.45289 1.4 35.6005 -250 0
939 27.9972 6.45289 1.4 36.0817 -250 0
940 28.4972 6.45289 1.4 36.5633 -250 0
941 28.9972 6.45289 1.4 37.0455 -250 0
942 29.4972 6.45289 1.4 37.5281 -250 0
943 29.9972 6.45289 1.4 38.0112 -250 0
944 30.4972 6.45289 1.4 38.4946 -250 0
945 -28.0028 6.95289 1.4 23.1834 -125.234 66.4289
946 -27.5028 6.95289 1.4 22.7258 -125.842 -179.412
947 -27.0028 6.95289 1.4 22.2699 -98.8964 -163.926
948 -26.5028 6.95289 1.4 21.8161 -83.5558 -79.7287
949 -26.0028 6.95289 1.4 21.3642 -99.9804 102.514
950 -25.5028 6.95289 1.4 20.9146 -103.921 92.6667
951 -25.0028 6.95289 1.4 20.4673 -94.5825 -96.6052
952 -24.5028 6.95289 1.4 20.0225 -103.249 -54.6396
953 -24.0028 6.95289 1.4 19.5804 -93.4554 -135.324
954 -23.5028 6.95289 1.4 19.1411 -98.7492 91.9539
955 -23.0028 6.95289 1.4 18.7049 -108.304 118.756
956 -22.5028 6.95289 1.4 18.2719 -110.981 21.7912
957 -22.0028 6.95289 1.4 17.8425 -113.584 -159.679
958 -21.5028 6.95289 1.4 17.4168 -86.1984 17.818
959 -21.0028 6.95289 1.4 16.9951 -103.13 -12.4077
960 -20.5028 6.95289 1.4 16.5778 -94.5804 41.1812
961 -20.0028 6.95289 1.4 16.1653 -89.3776 82.7116
962 -19.5028 6.95289 1.4 15.7577 -82.0538 127.626
963 -19.0028 6.95289 1.4 15.3557 -83.918 31.1771
964 -18.5028 6.95289 1.4 14.9595 -90.7319 179.713
965 -18.0028 6.95289 1.4 14.5697 -250 0
966 -17.5028 6.95289 1.4 14.1869 -250 0
967 -17.0028 6.95289 1.4 13.8115 -250 0
968 -16.5028 6.95289 1.4 13.4442 -250 0
969 -16.0028 6.95289 1.4 13.0858 -250 0
970 -15.5028 6.95289 1.4 12.7369 -250 0
971 -15.0028 6.95289 1.4 12.3983 -250 0
972 -14.5028 6.95289 1.4 12.071 -250 0
973 -14.0028 6.95289 1.4 11.7558 -250 0
974 -13.5028 6.95289 1.4 11.4538 -70.7498 61.5635
975 -13.0028 6.95289 1.4 11.166 -77.9547 172.657
976 -12.5028 6.95289 1.4 10.8936 -70.5046 51.6786
977 -12.0028 6.95289 1.4 10.6377 -74.941 -12.0473
978 -11.5028 6.95289 1.4 10.3996 -67.2759 -131.572
979 -11.0028 6.95289 1.4 10.1805 -71.7746 -13.4555
980 -10.5028 6.95289 1.4 9.98159 -73.8999 -1.64704
981 -10.0028 6.95289 1.4 9.80421 -74.5553 171.831
982 -9.50282 6.95289 1.4 9.6495 -91.339 105.212
983 -9.00282 6.95289 1.4 9.51857 -70.2865 -31.7794
984 -8.50282 6.95289 1.4 9.41241 -76.4977 -102.437
985 -8.00282 6.95289 1.4 9.33188 -66.6004 -30.718
986 -7.50282 6.95289 1.4 9.27762 -63.108 96.9931
987 -7.00282 6.95289 1.4 9.25012 -74.9363 96.7415
988 -6.50282 6.95289 1.4 9.24959 -56.9268 -110.426
989 -6.00282 6.95289 1.4 9.27606 -55.9152 32.4241
990 -5.50282 6.95289 1.4 9.32929 -59.7283 -2.47703
991 -5.00282 6.95289 1.4 9.40883 -58.0316 -18.9876
992 -4.50282 6.95289 1.4 9.51401 -82.1224 16.9341
993 -4.00282 6.95289 1.4 9.644 -82.801 113.89
994 -3.50282 6.95289 1.4 9.79781 -72.327 -132.25
995 -3.00282 6.95289 1.4 9.97434 -80.0679 -85.4676
996 -2.50282 6.95289 1.4 10.1724 -64.6664 -84.4084
997 -2.00282 6.95289 1.4 10.3908 -67.2838 -94.7883
998 -1.50282 6.95289 1.4 10.6282 -67.0415 -152.24
999 -1.00282 6.95289 1.4 10.8834 -67.5239 -123.349
1000 -0.50282 6.95289 1.4 11.1552 -68.2181 62.6521
1001 -0.00282 6.95289 1.4 11.4424 -58.674 154.011
1002 0.49718 6.95289 1.4 11.7439 -73.8812 -55.1097
1003 0.99718 6.95289 1.4 12.0586 -78.7433 -7.21961
1004 1.49718 6.95289 1.4 12.3855 -78.0737 179.521
1005 1.99718 6.95289 1.4 12.7236 -76.0457 -169.42
1006 2.49718 6.95289 1.4 13.0722 -62.4752 31.8307
1007 2.99718 6.95289 1.4 13.4303 -60.9582 30.6704
1008 3.49718 6.95289 1.4 13.7972 -62.2249 47.8242
1009 3.99718 6.95289 1.4 14.1722 -63.8463 27.7409
1010 4.49718 6.95289 1.4 14.5548 -84.6839 151.031
1011 4.99718 6.95289 1.4 14.9443 -250 0
1012 5.49718 6.95289 1.4 15.3403 -81.9294 75.6477
1013 5.99718 6.95289 1.4 15.7421 -73.8026 -40.6178
1014 6.49718 6.95289 1.4 16.1494 -74.349 154.619
1015 6.99718 6.95289 1.4 16.5618 -76.1094 -48.7122
1016 7.49718 6.95289 1.4 16.979 -66.5054 -137.056
1017 7.99718 6.95289 1.4 17.4004 -64.3981 -9.14411
1018 8.49718 6.95289 1.4 17.826 -69.4298 10.253
1019 8.99718 6.95289 1.4 18.2553 -68.1862 150.524
1020 9.49718 6.95289 1.4 18.6881 -76.3782 -7.54989
1021 9.99718 6.95289 1.4 19.1242 -72.5994 113.092
1022 10.4972 6.95289 1.4 19.5634 -82.8921 15.4242
1023 10.9972 6.95289 1.4 20.0054 -76.0938 -43.8416
1024 11.4972 6.95289 1.4 20.4501 -79.8209 -35.6429
1025 11.9972 6.95289 1.4 20.8973 -82.8348 -31.328
1026 12.4972 6.95289 1.4 21.3469 -88.3157 -4.75574
1027 12.9972 6.95289 1.4 21.7986 -73.0942 123.085
1028 13.4972 6.95289 1.4 22.2524 -74.7127 55.4189
1029 13.9972 6.95289 1.4 22.7081 -250 0
1030 14.4972 6.95289 1.4 23.1657 -250 0
1031 14.9972 6.95289 1.4 23.625 -250 0
1032 15.4972 6.95289 1.4 24.0859 -250 0
1033 15.9972 6.95289 1.4 24.5483 -250 0
1034 16.4972 6.95289 1.4 25.0122 -250 0
1035 16.9972 6.95289 1.4 25.4775 -250 0
1036 17.4972 6.95289 1.4 25.944 -250 0
1037 17.9972 6.95289 1.4 26.4118 -88.7797 1.69422
1038 18.4972 6.95289 1.4 26.8807 -91.0912 -12.4024
1039 18.9972 6.95289 1.4 27.3507 -88.4227 -51.7539
1040 19.4972 6.95289 1.4 27.8218 -88.7296 -105.774
1041 19.9972 6.95289 1.4 28.2939 -82.274 -125.858
1042 20.4972 6.95289 1.4 28.7669 -74.7166 -48.668
1043 20.9972 6.95289 1.4 29.2408 -83.4055 57.0934
1044 21.4972 6.95289 1.4 29.7156 -250 0
1045 21.9972 6.95289 1.4 30.1911 -250 0
1046 22.4972 6.95289 1.4 30.6675 -104.367 120.656
1047 22.9972 6.95289 1.4 31.1446 -84.8929 -140.598
1048 23.4972 6.95289 1.4 31.6224 -82.2666 141.512
1049 23.9972 6.95289 1.4 32.1009 -82.0801 42.2841
1050 24.4972 6.95289 1.4 32.58 -94.486 -56.0608
1051 24.9972 6.95289 1.4 33.0598 -250 0
1052 25.4972 6.95289 1.4 33.5401 -250 0
1053 25.9972 6.95289 1.4 34.021 -250 0
1054 26.4972 6.95289 1.4 34.5024 -250 0
1055 26.9972 6.95289 1.4 34.9844 -250 0
1056 27.4972 6.95289 1.4 35.4669 -250 0
1057 27.9972 6.95289 1.4 35.9498 -250 0
1058 28.4972 6.95289 1.4 36.4332 -250 0
1059 28.9972 6.95289 1.4 36.9171 -250 0
1060 29.4972 6.95289 1.4 37.4013 -250 0
1061 29.9972 6.95289 1.4 37.886 -250 0
1062 30.4972 6.95289 1.4 38.3711 -250 0
1063 -28.0028 7.45289 1.4 22.9885 -103.775 -91.7675
1064 -27.5028 7.45289 1.4 22.5269 -102.294 112.123
1065 -27.0028 7.45289 1.4 22.067 -80.5634 158.214
1066 -26.5028 7.45289 1.4 21.6089 -100.94 -2.79318
1067 -26.0028 7.45289 1.4 21.1526 -98.0042 -40.2909
1068 -25.5028 7.45289 1.4 20.6984 -127.922 -68.5087
1069 -25.0028 7.45289 1.4 20.2464 -115.664 165.722
1070 -24.5028 7.45289 1.4 19.7966 -110.305 -145.172
1071 -24.0028 7.45289 1.4 19.3493 -113.025 57.2599
1072 -23.5028 7.45289 1.4 18.9047 -93.12 144.021
1073 -23.0028 7.45289 1.4 18.4628 -101.264 -52.5926
1074 -22.5028 7.45289 1.4 18.0241 -107.64 152.699
1075 -22.0028 7.45289 1.4 17.5886 -85.9772 -66.4937
1076 -21.5028 7.45289 1.4 17.1566 -97.324 -88.0028
1077 -21.0028 7.45289 1.4 16.7284 -100.657 -126.282
1078 -20.5028 7.45289 1.4 16.3042 -102.496 -140.354
1079 -20.0028 7.45289 1.4 15.8845 -97.7181 -60.1166
1080 -19.5028 7.45289 1.4 15.4696 -92.1328 91.998
1081 -19.0028 7.45289 1.4 15.0599 -80.1051 116.099
1082 -18.5028 7.45289 1.4 14.6557 -92.56 -10.5725
1083 -18.0028 7.45289 1.4 14.2576 -86.2634 85.2221
1084 -17.5028 7.45289 1.4 13.8662 -92.0251 91.9709
1085 -17.0028 7.45289 1.4 13.4819 -250 0
1086 -16.5028 7.45289 1.4 13.1054 -250 0
1087 -16.0028 7.45289 1.4 12.7374 -250 0
1088 -15.5028 7.45289 1.4 12.3787 -250 0
1089 -15.0028 7.45289 1.4 12.0301 -250 0
1090 -14.5028 7.45289 1.4 11.6924 -250 0
1091 -14.0028 7.45289 1.4 11.3668 -250 0
1092 -13.5028 7.45289 1.4 11.0541 -62.0055 -156.087
1093 -13.0028 7.45289 1.4 10.7556 -83.5596 -58.0726
1094 -12.5028 7.45289 1.4 10.4725 -73.4978 -106.139
1095 -12.0028 7.45289 1.4 10.2061 -73.5382 -132.942
1096 -11.5028 7.45289 1.4 9.95766 -76.5044 -54.2754
1097 -11.0028 7.45289 1.4 9.72858 -250 0
1098 -10.5028 7.45289 1.4 9.52028 -74.0918 -12.8673
1099 -10.0028 7.45289 1.4 9.33413 -76.2416 -86.4654
1100 -9.50282 7.45289 1.4 9.1715 -81.4422 -140.598
1101 -9.00282 7.45289 1.4 9.03364 -73.9776 -146.696
1102 -8.50282 7.45289 1.4 8.92172 -73.05 -159.493
1103 -8.00282 7.45289 1.4 8.83671 -65.126 -53.2046
1104 -7.50282 7.45289 1.4 8.7794 -69.3709 79.3113
1105 -7.00282 7.45289 1.4 8.75032 -76.6346 -67.4745
1106 -6.50282 7.45289 1.4 8.74977 -77.6392 -129.306
1107 -6.00282 7.45289 1.4 8.77775 -58.4823 142.198
1108 -5.50282 7.45289 1.4 8.83398 -59.3992 -151.907
1109 -5.00282 7.45289 1.4 8.91794 -60.7434 -151.192
1110 -4.50282 7.45289 1.4 9.02884 -58.0359 152.39
1111 -4.00282 7.45289 1.4 9.16571 -85.6723 -79.4868
1112 -3.50282 7.45289 1.4 9.32741 -76.155 -75.3521
1113 -3.00282 7.45289 1.4 9.51268 -72.3283 90.6218
1114 -2.50282 7.45289 1.4 9.72015 -61.2155 162.938
1115 -2.00282 7.45289 1.4 9.94845 -66.1721 61.8968
1116 -1.50282 7.45289 1.4 10.1962 -93.9158 32.5845
1117 -1.00282 7.45289 1.4 10.462 -67.9212 113.571
1118 -0.50282 7.45289 1.4 10.7444 -75.009 94.4104
1119 -0.00282 7.45289 1.4 11.0423 -70.9539 -110.494
1120 0.49718 7.45289 1.4 11.3544 -84.8934 -32.079
1121 0.99718 7.45289 1.4 11.6796 -71.7342 64.6338
1122 1.49718 7.45289 1.4 12.0168 -71.7232 117.523
1123 1.99718 7.45289 1.4 12.3651 -58.7684 -49.576
1124 2.49718 7.45289 1.4 12.7234 -61.2272 -52.0203
1125 2.99718 7.45289 1.4 13.091 -61.4209 -30.3472
1126 3.49718 7.45289 1.4 13.4672 -63.2048 -76.0173
1127 3.99718 7.45289 1.4 13.8512 -86.922 49.9772
1128 4.49718 7.45289 1.4 14.2424 -250 0
1129 4.99718 7.45289 1.4 14.6402 -250 0
1130 5.49718 7.45289 1.4 15.0442 -86.7033 -34.6353
1131 5.99718 7.45289 1.4 15.4537 -74.492 -153.156
1132 6.49718 7.45289 1.4 15.8685 -73.9601 56.0142
1133 6.99718 7.45289 1.4 16.288 -75.8272 -132.957
1134 7.49718 7.45289 1.4 16.7119 -66.2515 -107.521
1135 7.99718 7.45289 1.4 17.14 -69.8001 -179.366
1136 8.49718 7.45289 1.4 17.5718 -76.2524 38.4738
1137 8.99718 7.45289 1.4 18.0072 -75.766 170.428
1138 9.49718 7.45289 1.4 18.4459 -77.3973 -43.7936
1139 9.99718 7.45289 1.4 18.8876 -85.4614 -68.3282
1140 10.4972 7.45289 1.4 19.3321 -83.3988 -23.1743
1141 10.9972 7.45289 1.4 19.7793 -83.1889 -4.51412
1142 11.4972 7.45289 1.4 20.229 -74.7856 27.7952
1143 11.9972 7.45289 1.4 20.681 -87.9621 -137.566
1144 12.4972 7.45289 1.4 21.1351 -70.5372 34.9228
1145 12.9972 7.45289 1.4 21.5913 -75.5782 -26.0345
1146 13.4972 7.45289 1.4 22.0493 -71.3442 -71.2259
1147 13.9972 7.45289 1.4 22.5092 -250 0
1148 14.4972 7.45289 1.4 22.9707 -250 0
1149 14.9972 7.45289 1.4 23.4338 -250 0
1150 15.4972 7.45289 1.4 23.8984 -250 0
1151 15.9972 7.45289 1.4 24.3644 -250 0
1152 16.4972 7.45289 1.4 24.8317 -95.2664 -114.097
1153 16.9972 7.45289 1.4 25.3003 -250 0
1154 17.4972 7.45289 1.4 25.7701 -82.5583 -145.641
1155 17.9972 7.45289 1.4 26.2409 -250 0
1156 18.4972 7.45289 1.4 26.7129 -250 0
1157 18.9972 7.45289 1.4 27.1858 -250 0
1158 19.4972 7.45289 1.4 27.6597 -90.8778 -9.48732
1159 19.9972 7.45289 1.4 28.1345 -90.8403 -25.7432
1160 20.4972 7.45289 1.4 28.6101 -88.2448 -61.6773
1161 20.9972 7.45289 1.4 29.0866 -73.3947 -128.892
1162 21.4972 7.45289 1.4 29.5638 -74.9214 -7.50707
1163 21.9972 7.45289 1.4 30.0418 -89.3667 117.339
1164 22.4972 7.45289 1.4 30.5205 -87.8783 84.2396
1165 22.9972 7.45289 1.4 30.9998 -81.9262 93.7693
1166 23.4972 7.45289 1.4 31.4798 -100.954 -96.643
1167 23.9972 7.45289 1.4 31.9605 -90.1891 -176.883
1168 24.4972 7.45289 1.4 32.4417 -86.2671 144.145
1169 24.9972 7.45289 1.4 32.9234 -250 0
1170 25.4972 7.45289 1.4 33.4057 -250 0
1171 25.9972 7.45289 1.4 33.8885 -84.0577 98.8572
1172 26.4972 7.45289 1.4 34.3718 -86.5166 -89.4353
1173 26.9972 7.45289 1.4 34.8556 -80.6618 -91.4891
1174 27.4972 7.45289 1.4 35.3398 -250 0
1175 27.9972 7.45289 1.4 35.8245 -250 0
1176 28.4972 7.45289 1.4 36.3096 -250 0
1177 28.9972 7.45289 1.4 36.795 -250 0
1178 29.4972 7.45289 1.4 37.2809 -250 0
1179 29.9972 7.45289 1.4 37.7671 -250 0
1180 30.4972 7.45289 1.4 38.2537 -250 0
1181 -28.0028 7.95289 1.4 22.803 -95.7047 162.237
1182 -27.5028 7.95289 1.4 22.3376 -101.053 -12.8923
1183 -27.0028 7.95289 1.4 21.8737 -99.6235 -43.0545
1184 -26.5028 7.95289 1.4 21.4114 -100.598 -121.79
1185 -26.0028 7.95289 1.4 20.9508 -250 0
1186 -25.5028 7.95289 1.4 20.4922 -250 0
1187 -25.0028 7.95289 1.4 20.0354 -250 0
1188 -24.5028 7.95289 1.4 19.5808 -250 0
1189 -24.0028 7.95289 1.4 19.1285 -123.994 -105.522
1190 -23.5028 7.95289 1.4 18.6786 -102.438 -118.569
1191 -23.0028 7.95289 1.4 18.2313 -89.7992 -77.5239
1192 -22.5028 7.95289 1.4 17.7868 -98.0013 -63.5013
1193 -22.0028 7.95289 1.4 17.3453 -100.597 -150.106
1194 -21.5028 7.95289 1.4 16.9071 -103.125 -156.828
1195 -21.0028 7.95289 1.4 16.4725 -122.151 68.6567
1196 -20.5028 7.95289 1.4 16.0416 -123.584 -34.7013
1197 -20.0028 7.95289 1.4 15.6148 -125.003 -147.346
1198 -19.5028 7.95289 1.4 15.1925 -136.105 -121.796
1199 -19.0028 7.95289 1.4 14.7751 -101.961 -62.5417
1200 -18.5028 7.95289 1.4 14.3629 -86.6499 18.2335
1201 -18.0028 7.95289 1.4 13.9565 -80.0057 -177.477
1202 -17.5028 7.95289 1.4 13.5563 -89.6318 -84.1978
1203 -17.0028 7.95289 1.4 13.163 -250 0
1204 -16.5028 7.95289 1.4 12.7771 -250 0
1205 -16.0028 7.95289 1.4 12.3994 -250 0
1206 -15.5028 7.95289 1.4 12.0306 -250 0
1207 -15.0028 7.95289 1.4 11.6716 -250 0
1208 -14.5028 7.95289 1.4 11.3233 -250 0
1209 -14.0028 7.95289 1.4 10.9867 -250 0
1210 -13.5028 7.95289 1.4 10.6629 -61.7183 -65.934
1211 -13.0028 7.95289 1.4 10.3531 -58.3641 111.088
1212 -12.5028 7.95289 1.4 10.0587 -68.9282 146.789
1213 -12.0028 7.95289 1.4 9.78101 -76.3513 157.05
1214 -11.5028 7.95289 1.4 9.52147 -88.3051 174.734
1215 -11.0028 7.95289 1.4 9.28164 -250 0
1216 -10.5028 7.95289 1.4 9.06307 -250 0
1217 -10.0028 7.95289 1.4 8.86733 -250 0
1218 -9.50282 7.95289 1.4 8.69597 -250 0
1219 -9.00282 7.95289 1.4 8.55045 -250 0
1220 -8.50282 7.95289 1.4 8.43212 -74.3819 -24.5898
1221 -8.00282 7.95289 1.4 8.34212 -58.7825 155.464
1222 -7.50282 7.95289 1.4 8.28138 -68.5862 -8.42694
1223 -7.00282 7.95289 1.4 8.25056 -85.0436 -92.1999
1224 -6.50282 7.95289 1.4 8.24997 -104.543 -145.275
1225 -6.00282 7.95289 1.4 8.27964 -84.5638 124.019
1226 -5.50282 7.95289 1.4 8.33923 -76.0898 -140.502
1227 -5.00282 7.95289 1.4 8.42811 -85.4187 -14.9043
1228 -4.50282 7.95289 1.4 8.54538 -80.0104 96.0807
1229 -4.00282 7.95289 1.4 8.68987 -85.4386 -74.5351
1230 -3.50282 7.95289 1.4 8.86026 -73.6697 -142.897
1231 -3.00282 7.95289 1.4 9.05508 -67.5541 -20.6413
1232 -2.50282 7.95289 1.4 9.2728 -67.397 -54.2254
1233 -2.00282 7.95289 1.4 9.51185 -75.7719 -37.1058
1234 -1.50282 7.95289 1.4 9.77065 -104.962 -149.866
1235 -1.00282 7.95289 1.4 10.0477 -90.0554 -157.7
1236 -0.50282 7.95289 1.4 10.3415 -87.5784 -174.268
1237 -0.00282 7.95289 1.4 10.6507 -87.7899 83.1015
1238 0.49718 7.95289 1.4 10.9739 -250 0
1239 0.99718 7.95289 1.4 11.3101 -72.6396 16.5378
1240 1.49718 7.95289 1.4 11.6579 -61.8703 -134.019
1241 1.99718 7.95289 1.4 12.0166 -59.3732 -126.889
1242 2.49718 7.95289 1.4 12.385 -59.3531 -109.383
1243 2.99718 7.95289 1.4 12.7624 -81.488 0.261712
1244 3.49718 7.95289 1.4 13.148 -79.2293 -151.082
1245 3.99718 7.95289 1.4 13.541 -250 0
1246 4.49718 7.95289 1.4 13.9409 -250 0
1247 4.99718 7.95289 1.4 14.3471 -250 0
1248 5.49718 7.95289 1.4 14.7591 -250 0
1249 5.99718 7.95289 1.4 15.1763 -82.9848 36.334
1250 6.49718 7.95289 1.4 15.5984 -73.8247 -33.2042
1251 6.99718 7.95289 1.4 16.025 -60.9768 -154.513
1252 7.49718 7.95289 1.4 16.4558 -76.5943 51.1097
1253 7.99718 7.95289 1.4 16.8903 -74.5509 -115.354
1254 8.49718 7.95289 1.4 17.3284 -78.6997 22.7178
1255 8.99718 7.95289 1.4 17.7697 -250 0
1256 9.49718 7.95289 1.4 18.2141 -250 0
1257 9.99718 7.95289 1.4 18.6613 -250 0
1258 10.4972 7.95289 1.4 19.1111 -83.0235 -174.773
1259 10.9972 7.95289 1.4 19.5633 -83.4854 169.281
1260 11.4972 7.95289 1.4 20.0179 -85.2878 110.094
1261 11.9972 7.95289 1.4 20.4745 -74.4233 -29.4683
1262 12.4972 7.95289 1.4 20.9331 -76.7443 -77.6598
1263 12.9972 7.95289 1.4 21.3936 -82.367 -127.853
1264 13.4972 7.95289 1.4 21.8558 -250 0
1265 13.9972 7.95289 1.4 22.3196 -250 0
1266 14.4972 7.95289 1.4 22.785 -250 0
1267 14.9972 7.95289 1.4 23.2518 -250 0
1268 15.4972 7.95289 1.4 23.72 -250 0
1269 15.9972 7.95289 1.4 24.1894 -250 0
1270 16.4972 7.95289 1.4 24.6601 -87.2131 179.324
1271 16.9972 7.95289 1.4 25.1318 -89.129 -164.681
1272 17.4972 7.95289 1.4 25.6047 -93.4985 162.489
1273 17.9972 7.95289 1.4 26.0785 -250 0
1274 18.4972 7.95289 1.4 26.5533 -250 0
1275 18.9972 7.95289 1.4 27.0291 -250 0
1276 19.4972 7.95289 1.4 27.5056 -250 0
1277 19.9972 7.95289 1.4 27.983 -250 0
1278 20.4972 7.95289 1.4 28.4612 -95.6763 160.473
1279 20.9972 7.95289 1.4 28.9401 -95.0769 147.45
1280 21.4972 7.95289 1.4 29.4198 -89.4149 175.641
1281 21.9972 7.95289 1.4 29.9 -74.9444 175.731
1282 22.4972 7.95289 1.4 30.381 -83.7153 -23.1535
1283 22.9972 7.95289 1.4 30.8625 -84.1979 -152.912
1284 23.4972 7.95289 1.4 31.3446 -95.438 119.939
1285 23.9972 7.95289 1.4 31.8273 -96.3039 -5.28804
1286 24.4972 7.95289 1.4 32.3104 -97.1691 -141.269
1287 24.9972 7.95289 1.4 32.7941 -250 0
1288 25.4972 7.95289 1.4 33.2783 -250 0
1289 25.9972 7.95289 1.4 33.7629 -81.105 -33.7505
1290 26.4972 7.95289 1.4 34.248 -70.6966 81.4625
1291 26.9972 7.95289 1.4 34.7335 -73.6438 115.685
1292 27.4972 7.95289 1.4 35.2194 -250 0
1293 27.9972 7.95289 1.4 35.7057 -250 0
1294 28.4972 7.95289 1.4 36.1924 -250 0
1295 28.9972 7.95289 1.4 36.6794 -250 0
1296 29.4972 7.95289 1.4 37.1668 -250 0
1297 29.9972 7.95289 1.4 37.6545 -250 0
1298 30.4972 7.95289 1.4 38.1425 -250 0
1299 -28.0028 8.45289 1.4 22.627 -84.556 -34.2361
1300 -27.5028 8.45289 1.4 22.1579 -83.7906 -68.6627
1301 -27.0028 8.45289 1.4 21.6901 -96.7152 -7.00886
1302 -26.5028 8.45289 1.4 21.2238 -93.6214 -47.6882
1303 -26.0028 8.45289 1.4 20.7591 -250 0
1304 -25.5028 8.45289 1.4 20.2961 -250 0
1305 -25.0028 8.45289 1.4 19.8349 -250 0
1306 -24.5028 8.45289 1.4 19.3756 -250 0
1307 -24.0028 8.45289 1.4 18.9183 -100.295 -134.965
1308 -23.5028 8.45289 1.4 18.4633 -86.4419 -152.79
1309 -23.0028 8.45289 1.4 18.0107 -98.1136 -128.563
1310 -22.5028 8.45289 1.4 17.5606 -91.2265 12.6374
1311 -22.0028 8.45289 1.4 17.1133 -91.0509 20.8678
1312 -21.5028 8.45289 1.4 16.669 -109.448 159.769
1313 -21.0028 8.45289 1.4 16.2279 -119.949 98.4419
1314 -20.5028 8.45289 1.4 15.7904 -122.292 8.3484
1315 -20.0028 8.45289 1.4 15.3566 -125.283 -133.186
1316 -19.5028 8.45289 1.4 14.927 -100.086 -95.8904
1317 -19.0028 8.45289 1.4 14.502 -100.512 142.344
1318 -18.5028 8.45289 1.4 14.0818 -88.4542 -22.6115
1319 -18.0028 8.45289 1.4 13.667 -86.5777 -80.9372
1320 -17.5028 8.45289 1.4 13.2581 -88.0136 -144.751
1321 -17.0028 8.45289 1.4 12.8557 -250 0
1322 -16.5028 8.45289 1.4 12.4603 -250 0
1323 -16.0028 8.45289 1.4 12.0726 -250 0
1324 -15.5028 8.45289 1.4 11.6936 -250 0
1325 -15.0028 8.45289 1.4 11.3238 -250 0
1326 -14.5028 8.45289 1.4 10.9645 -250 0
1327 -14.0028 8.45289 1.4 10.6165 -250 0
1328 -13.5028 8.45289 1.4 10.2811 -60.4155 21.888
1329 -13.0028 8.45289 1.4 9.95946 -61.5289 -133.038
1330 -12.5028 8.45289 1.4 9.65304 -75.8412 -13.634
1331 -12.0028 8.45289 1.4 9.36331 -94.1865 -95.4328
1332 -11.5028 8.45289 1.4 9.09186 -82.636 -56.0329
1333 -11.0028 8.45289 1.4 8.84038 -90.9401 -53.165
1334 -10.5028 8.45289 1.4 8.61062 -250 0
1335 -10.0028 8.45289 1.4 8.40435 -250 0
1336 -9.50282 8.45289 1.4 8.22335 -250 0
1337 -9.00282 8.45289 1.4 8.06931 -80.562 162.648
1338 -8.50282 8.45289 1.4 7.94381 -68.1245 -17.8959
1339 -8.00282 8.45289 1.4 7.84822 -55.5539 158.247
1340 -7.50282 8.45289 1.4 7.78363 -62.8857 -49.7076
1341 -7.00282 8.45289 1.4 7.75082 -79.0331 -14.342
1342 -6.50282 8.45289 1.4 7.7502 -93.4726 7.42125
1343 -6.00282 8.45289 1.4 7.78177 -81.7257 168.467
1344 -5.50282 8.45289 1.4 7.84514 -79.641 54.1387
1345 -5.00282 8.45289 1.4 7.93956 -87.3423 -34.9953
1346 -4.50282 8.45289 1.4 8.06393 -81.1145 20.8404
1347 -4.00282 8.45289 1.4 8.2169 -85.2472 -71.1628
1348 -3.50282 8.45289 1.4 8.39689 -65.359 168.634
1349 -3.00282 8.45289 1.4 8.60221 -59.8957 -151.219
1350 -2.50282 8.45289 1.4 8.83111 -64.8773 112.53
1351 -2.00282 8.45289 1.4 9.08178 -88.953 -175.929
1352 -1.50282 8.45289 1.4 9.35249 -78.3624 75.0253
1353 -1.00282 8.45289 1.4 9.64155 -94.9972 -31.6925
1354 -0.50282 8.45289 1.4 9.94736 -88.9581 -4.50255
1355 -0.00282 8.45289 1.4 10.2684 -87.9828 -55.201
1356 0.49718 8.45289 1.4 10.6033 -79.5431 -44.2828
1357 0.99718 8.45289 1.4 10.9508 -59.4501 156.042
1358 1.49718 8.45289 1.4 11.3098 -59.9952 145.695
1359 1.99718 8.45289 1.4 11.6791 -59.0382 165.727
1360 2.49718 8.45289 1.4 12.0579 -70.8056 -10.9398
1361 2.99718 8.45289 1.4 12.4452 -72.0615 117.345
1362 3.49718 8.45289 1.4 12.8403 -82.372 -145.125
1363 3.99718 8.45289 1.4 13.2425 -250 0
1364 4.49718 8.45289 1.4 13.6511 -250 0
1365 4.99718 8.45289 1.4 14.0657 -250 0
1366 5.49718 8.45289 1.4 14.4857 -88.9796 -5.29985
1367 5.99718 8.45289 1.4 14.9106 -72.6448 -18.5037
1368 6.49718 8.45289 1.4 15.34 -63.5097 120.052
1369 6.99718 8.45289 1.4 15.7736 -70.4077 -51.436
1370 7.49718 8.45289 1.4 16.211 -84.6939 140.602
1371 7.99718 8.45289 1.4 16.6519 -73.5367 15.7251
1372 8.49718 8.45289 1.4 17.0961 -250 0
1373 8.99718 8.45289 1.4 17.5433 -250 0
1374 9.49718 8.45289 1.4 17.9932 -250 0
1375 9.99718 8.45289 1.4 18.4458 -250 0
1376 10.4972 8.45289 1.4 18.9007 -78.2779 102.185
1377 10.9972 8.45289 1.4 19.3579 -70.3855 -51.0964
1378 11.4972 8.45289 1.4 19.8171 -75.4152 -106.481
1379 11.9972 8.45289 1.4 20.2783 -70.3666 -169.98
1380 12.4972 8.45289 1.4 20.7412 -75.2421 169.73
1381 12.9972 8.45289 1.4 21.2059 -84.5008 -16.5831
1382 13.4972 8.45289 1.4 21.6721 -91.9718 -9.65594
1383 13.9972 8.45289 1.4 22.1398 -250 0
1384 14.4972 8.45289 1.4 22.6089 -250 0
1385 14.9972 8.45289 1.4 23.0792 -250 0
1386 15.4972 8.45289 1.4 23.5508 -250 0
1387 15.9972 8.45289 1.4 24.0236 -250 0
1388 16.4972 8.45289 1.4 24.4974 -105.081 42.0204
1389 16.9972 8.45289 1.4 24.9722 -250 0
1390 17.4972 8.45289 1.4 25.448 -103.482 148.272
1391 17.9972 8.45289 1.4 25.9248 -94.6606 134.609
1392 18.4972 8.45289 1.4 26.4023 -87.1319 136.34
1393 18.9972 8.45289 1.4 26.8807 -84.4536 98.0222
1394 19.4972 8.45289 1.4 27.3599 -92.8217 -106.236
1395 19.9972 8.45289 1.4 27.8398 -93.3408 -130.008
1396 20.4972 8.45289 1.4 28.3204 -250 0
1397 20.9972 8.45289 1.4 28.8017 -85.6455 -150.874
1398 21.4972 8.45289 1.4 29.2835 -85.5339 3.67399
1399 21.9972 8.45289 1.4 29.766 -95.9759 -105.77
1400 22.4972 8.45289 1.4 30.2491 -74.8092 158.891
1401 22.9972 8.45289 1.4 30.7327 -73.9294 -77.7208
1402 23.4972 8.45289 1.4 31.2168 -81.6396 -81.8329
1403 23.9972 8.45289 1.4 31.7014 -88.2688 -137.928
1404 24.4972 8.45289 1.4 32.1865 -88.6932 163.938
1405 24.9972 8.45289 1.4 32.672 -73.4068 35.3263
1406 25.4972 8.45289 1.4 33.1579 -69.7616 89.2147
1407 25.9972 8.45289 1.4 33.6443 -76.0324 126.697
1408 26.4972 8.45289 1.4 34.1311 -72.6507 -4.56538
1409 26.9972 8.45289 1.4 34.6182 -83.7536 14.6949
1410 27.4972 8.45289 1.4 35.1057 -250 0
1411 27.9972 8.45289 1.4 35.5935 -250 0
1412 28.4972 8.45289 1.4 36.0817 -250 0
1413 28.9972 8.45289 1.4 36.5702 -250 0
1414 29.4972 8.45289 1.4 37.059 -250 0
1415 29.9972 8.45289 1.4 37.5481 -250 0
1416 30.4972 8.45289 1.4 38.0375 -250 0
1417 -28.0028 8.95289 1.4 22.4607 -91.5367 -36.641
1418 -27.5028 8.95289 1.4 21.988 -88.2895 -164.128
1419 -27.0028 8.95289 1.4 21.5166 -87.0268 28.9302
1420 -26.5028 8.95289 1.4 21.0465 -83.1942 -12.5092
1421 -26.0028 8.95289 1.4 20.5778 -100.955 53.2403
1422 -25.5028 8.95289 1.4 20.1106 -250 0
1423 -25.0028 8.95289 1.4 19.645 -92.9424 -40.6896
1424 -24.5028 8.95289 1.4 19.1811 -250 0
1425 -24.0028 8.95289 1.4 18.7191 -84.9193 127.052
1426 -23.5028 8.95289 1.4 18.2592 -95.5268 99.6391
1427 -23.0028 8.95289 1.4 17.8013 -250 0
1428 -22.5028 8.95289 1.4 17.3458 -99.141 152.491
1429 -22.0028 8.95289 1.4 16.8928 -97.8066 -147.753
1430 -21.5028 8.95289 1.4 16.4426 -95.8418 -66.4312
1431 -21.0028 8.95289 1.4 15.9953 -117.238 125.012
1432 -20.5028 8.95289 1.4 15.5512 -101.452 -163.805
1433 -20.0028 8.95289 1.4 15.1106 -101.087 79.9074
1434 -19.5028 8.95289 1.4 14.6738 -100.268 80.0035
1435 -19.0028 8.95289 1.4 14.2411 -87.9885 -104.919
1436 -18.5028 8.95289 1.4 13.8131 -103.381 55.7908
1437 -18.0028 8.95289 1.4 13.39 -104.877 -116.201
1438 -17.5028 8.95289 1.4 12.9723 -102.06 165.911
1439 -17.0028 8.95289 1.4 12.5607 -250 0
1440 -16.5028 8.95289 1.4 12.1557 -250 0
1441 -16.0028 8.95289 1.4 11.7581 -250 0
1442 -15.5028 8.95289 1.4 11.3685 -250 0
1443 -15.0028 8.95289 1.4 10.9879 -250 0
1444 -14.5028 8.95289 1.4 10.6171 -250 0
1445 -14.0028 8.95289 1.4 10.2574 -250 0
1446 -13.5028 8.95289 1.4 9.9098 -68.7051 7.43484
1447 -13.0028 8.95289 1.4 9.57572 -60.2526 -58.1158
1448 -12.5028 8.95289 1.4 9.25661 -59.1382 142.495
1449 -12.0028 8.95289 1.4 8.95406 -86.134 -57.3616
1450 -11.5028 8.95289 1.4 8.66981 -86.2793 41.3255
1451 -11.0028 8.95289 1.4 8.40571 -84.3993 131.367
1452 -10.5028 8.95289 1.4 8.16371 -250 0
1453 -10.0028 8.95289 1.4 7.94585 -250 0
1454 -9.50282 8.95289 1.4 7.75416 -250 0
1455 -9.00282 8.95289 1.4 7.59061 -73.1011 -177.675
1456 -8.50282 8.95289 1.4 7.45706 -75.1909 118.048
1457 -8.00282 8.95289 1.4 7.35514 -55.8572 169.757
1458 -7.50282 8.95289 1.4 7.28618 -63.1407 -64.1336
1459 -7.00282 8.95289 1.4 7.25112 -73.187 -31.3505
1460 -6.50282 8.95289 1.4 7.25046 -88.0488 77.9639
1461 -6.00282 8.95289 1.4 7.28419 -79.5914 -157.021
1462 -5.50282 8.95289 1.4 7.35186 -81.4326 47.4972
1463 -5.00282 8.95289 1.4 7.45253 -89.2212 -56.6319
1464 -4.50282 8.95289 1.4 7.58489 -99.119 137.739
1465 -4.00282 8.95289 1.4 7.74732 -85.068 -69.4263
1466 -3.50282 8.95289 1.4 7.93796 -62.9589 35.6504
1467 -3.00282 8.95289 1.4 8.15485 -63.0553 23.0392
1468 -2.50282 8.95289 1.4 8.39595 -75.6342 59.5852
1469 -2.00282 8.95289 1.4 8.65923 -82.1716 26.97
1470 -1.50282 8.95289 1.4 8.94275 -77.2551 -67.9766
1471 -1.00282 8.95289 1.4 9.24462 -105.382 117.837
1472 -0.50282 8.95289 1.4 9.56313 -81.2078 157.128
1473 -0.00282 8.95289 1.4 9.89665 -88.7663 133.569
1474 0.49718 8.95289 1.4 10.2437 -58.9271 85.8515
1475 0.99718 8.95289 1.4 10.603 -59.658 98.279
1476 1.49718 8.95289 1.4 10.9734 -61.3578 92.2869
1477 1.99718 8.95289 1.4 11.3536 -71.765 -79.32
1478 2.49718 8.95289 1.4 11.7429 -80.6403 -55.1594
1479 2.99718 8.95289 1.4 12.1403 -73.1346 -68.634
1480 3.49718 8.95289 1.4 12.545 -77.9991 29.4174
1481 3.99718 8.95289 1.4 12.9563 -250 0
1482 4.49718 8.95289 1.4 13.3737 -88.1968 144.736
1483 4.99718 8.95289 1.4 13.7966 -75.8127 153.094
1484 5.49718 8.95289 1.4 14.2245 -68.1681 -158.279
1485 5.99718 8.95289 1.4 14.657 -61.1696 18.4014
1486 6.49718 8.95289 1.4 15.0937 -72.8308 150.546
1487 6.99718 8.95289 1.4 15.5341 -82.0671 -83.4608
1488 7.49718 8.95289 1.4 15.9781 -76.1304 147.231
1489 7.99718 8.95289 1.4 16.4253 -78.4199 -33.2623
1490 8.49718 8.95289 1.4 16.8754 -79.4371 96.0316
1491 8.99718 8.95289 1.4 17.3283 -84.5307 93.7884
1492 9.49718 8.95289 1.4 17.7837 -84.5633 -9.98701
1493 9.99718 8.95289 1.4 18.2415 -250 0
1494 10.4972 8.95289 1.4 18.7014 -71.0392 -127.846
1495 10.9972 8.95289 1.4 19.1633 -71.6319 179.076
1496 11.4972 8.95289 1.4 19.6271 -71.244 105.046
1497 11.9972 8.95289 1.4 20.0926 -250 0
1498 12.4972 8.95289 1.4 20.5597 -87.4776 -105.808
1499 12.9972 8.95289 1.4 21.0284 -74.5666 -114.584
1500 13.4972 8.95289 1.4 21.4985 -84.4682 -73.4781
1501 13.9972 8.95289 1.4 21.9698 -250 0
1502 14.4972 8.95289 1.4 22.4425 -250 0
1503 14.9972 8.95289 1.4 22.9162 -250 0
1504 15.4972 8.95289 1.4 23.3911 -250 0
1505 15.9972 8.95289 1.4 23.867 -250 0
1506 16.4972 8.95289 1.4 24.3439 -250 0
1507 16.9972 8.95289 1.4 24.8217 -250 0
1508 17.4972 8.95289 1.4 25.3003 -250 0
1509 17.9972 8.95289 1.4 25.7798 -250 0
1510 18.4972 8.95289 1.4 26.26 -250 0
1511 18.9972 8.95289 1.4 26.7409 -250 0
1512 19.4972 8.95289 1.4 27.2226 -250 0
1513 19.9972 8.95289 1.4 27.7048 -83.1297 -68.4465
1514 20.4972 8.95289 1.4 28.1877 -79.4969 -1.88646
1515 20.9972 8.95289 1.4 28.6712 -86.1432 -110.024
1516 21.4972 8.95289 1.4 29.1553 -97.0454 166.058
1517 21.9972 8.95289 1.4 29.6398 -95.6435 47.448
1518 22.4972 8.95289 1.4 30.1249 -96.8172 -77.727
1519 22.9972 8.95289 1.4 30.6105 -97.9158 -89.5625
1520 23.4972 8.95289 1.4 31.0965 -76.8592 168.895
1521 23.9972 8.95289 1.4 31.5829 -83.0934 -113.267
1522 24.4972 8.95289 1.4 32.0698 -87.3578 -38.0845
1523 24.9972 8.95289 1.4 32.5571 -82.1035 55.0279
1524 25.4972 8.95289 1.4 33.0447 -76.4931 77.388
1525 25.9972 8.95289 1.4 33.5327 -76.3525 -84.6276
1526 26.4972 8.95289 1.4 34.0211 -250 0
1527 26.9972 8.95289 1.4 34.5098 -250 0
1528 27.4972 8.95289 1.4 34.9988 -250 0
1529 27.9972 8.95289 1.4 35.4881 -250 0
1530 28.4972 8.95289 1.4 35.9777 -250 0
1531 28.9972 8.95289 1.4 36.4676 -250 0
1532 29.4972 8.95289 1.4 36.9577 -250 0
1533 29.9972 8.95289 1.4 37.4482 -250 0
1534 30.4972 8.95289 1.4 37.9388 -250 0
1535 -28.0028 9.45289 1.4 22.3044 -250 0
1536 -27.5028 9.45289 1.4 21.8284 -250 0
1537 -27.0028 9.45289 1.4 21.3534 -88.4751 26.5918
1538 -26.5028 9.45289 1.4 20.8796 -85.9551 -116.513
1539 -26.0028 9.45289 1.4 20.4071 -82.8286 -153.277
1540 -25.5028 9.45289 1.4 19.9359 -95.0911 147.454
1541 -25.0028 9.45289 1.4 19.4661 -250 0
1542 -24.5028 9.45289 1.4 18.9979 -250 0
1543 -24.0028 9.45289 1.4 18.5313 -250 0
1544 -23.5028 9.45289 1.4 18.0666 -250 0
1545 -23.0028 9.45289 1.4 17.6037 -250 0
1546 -22.5028 9.45289 1.4 17.143 -250 0
1547 -22.0028 9.45289 1.4 16.6845 -250 0
1548 -21.5028 9.45289 1.4 16.2284 -250 0
1549 -21.0028 9.45289 1.4 15.7751 -250 0
1550 -20.5028 9.45289 1.4 15.3246 -250 0
1551 -20.0028 9.45289 1.4 14.8773 -250 0
1552 -19.5028 9.45289 1.4 14.4334 -250 0
1553 -19.0028 9.45289 1.4 13.9933 -250 0
1554 -18.5028 9.45289 1.4 13.5574 -250 0
1555 -18.0028 9.45289 1.4 13.1261 -250 0
1556 -17.5028 9.45289 1.4 12.6998 -250 0
1557 -17.0028 9.45289 1.4 12.2791 -250 0
1558 -16.5028 9.45289 1.4 11.8645 -250 0
1559 -16.0028 9.45289 1.4 11.4567 -250 0
1560 -15.5028 9.45289 1.4 11.0565 -250 0
1561 -15.0028 9.45289 1.4 10.6647 -250 0
1562 -14.5028 9.45289 1.4 10.2824 -250 0
1563 -14.0028 9.45289 1.4 9.91046 -250 0
1564 -13.5028 9.45289 1.4 9.55027 -75.7607 -123.451
1565 -13.0028 9.45289 1.4 9.20315 -78.866 -72.7814
1566 -12.5028 9.45289 1.4 8.87064 -58.8093 -142.422
1567 -12.0028 9.45289 1.4 8.55445 -61.2157 37.5641
1568 -11.5028 9.45289 1.4 8.25646 -87.5022 -115.982
1569 -11.0028 9.45289 1.4 7.97868 -84.8719 -78.8492
1570 -10.5028 9.45289 1.4 7.72333 -96.0607 -114.451
1571 -10.0028 9.45289 1.4 7.49267 -250 0
1572 -9.50282 9.45289 1.4 7.28907 -74.1653 122.996
1573 -9.00282 9.45289 1.4 7.11483 -66.6222 -26.1235
1574 -8.50282 9.45289 1.4 6.97217 -64.0598 100.109
1575 -8.00282 9.45289 1.4 6.86306 -67.3591 -150.237
1576 -7.50282 9.45289 1.4 6.7891 -62.8393 -85.5535
1577 -7.00282 9.45289 1.4 6.75146 -88.0676 62.8643
1578 -6.50282 9.45289 1.4 6.75075 -84.9063 132.017
1579 -6.00282 9.45289 1.4 6.78697 -77.9342 -130.083
1580 -5.50282 9.45289 1.4 6.85954 -83.1758 37.0486
1581 -5.00282 9.45289 1.4 6.96733 -90.9239 -79.8671
1582 -4.50282 9.45289 1.4 7.10873 -99.9166 108.203
1583 -4.00282 9.45289 1.4 7.28179 -84.0212 7.8894
1584 -3.50282 9.45289 1.4 7.4843 -59.4613 -109.164
1585 -3.00282 9.45289 1.4 7.71396 -80.5975 157.623
1586 -2.50282 9.45289 1.4 7.96841 -73.7913 -77.5102
1587 -2.00282 9.45289 1.4 8.24535 -70.4252 -174.111
1588 -1.50282 9.45289 1.4 8.54261 -80.1496 155.363
1589 -1.00282 9.45289 1.4 8.85814 -86.1386 -137.312
1590 -0.50282 9.45289 1.4 9.19005 -95.9247 -95.9146
1591 -0.00282 9.45289 1.4 9.53663 -90.2549 -64.762
1592 0.49718 9.45289 1.4 9.89635 -58.9222 32.9139
1593 0.99718 9.45289 1.4 10.2678 -59.8637 24.8411
1594 1.49718 9.45289 1.4 10.6498 -68.617 -179.636
1595 1.99718 9.45289 1.4 11.0412 -78.1362 155.621
1596 2.49718 9.45289 1.4 11.4411 -78.3047 -116.831
1597 2.99718 9.45289 1.4 11.8486 -82.2356 -29.6328
1598 3.49718 9.45289 1.4 12.2629 -75.9262 146.559
1599 3.99718 9.45289 1.4 12.6835 -84.9678 -140.439
1600 4.49718 9.45289 1.4 13.1096 -64.7852 -103.359
1601 4.99718 9.45289 1.4 13.5407 -70.6134 84.8303
1602 5.49718 9.45289 1.4 13.9765 -67.2462 -47.5142
1603 5.99718 9.45289 1.4 14.4164 -70.7318 43.6012
1604 6.49718 9.45289 1.4 14.8601 -250 0
1605 6.99718 9.45289 1.4 15.3073 -83.6885 128.544
1606 7.49718 9.45289 1.4 15.7576 -76.1035 33.236
1607 7.99718 9.45289 1.4 16.2109 -76.5337 -131.661
1608 8.49718 9.45289 1.4 16.6668 -79.3354 53.1964
1609 8.99718 9.45289 1.4 17.1252 -78.3787 -165.015
1610 9.49718 9.45289 1.4 17.5859 -250 0
1611 9.99718 9.45289 1.4 18.0487 -250 0
1612 10.4972 9.45289 1.4 18.5134 -69.7507 89.533
1613 10.9972 9.45289 1.4 18.9799 -69.6155 21.7195
1614 11.4972 9.45289 1.4 19.448 -250 0
1615 11.9972 9.45289 1.4 19.9177 -250 0
1616 12.4972 9.45289 1.4 20.3889 -250 0
1617 12.9972 9.45289 1.4 20.8614 -88.5418 -37.7401
1618 13.4972 9.45289 1.4 21.3351 -75.1185 -54.9828
1619 13.9972 9.45289 1.4 21.81 -250 0
1620 14.4972 9.45289 1.4 22.286 -250 0
1621 14.9972 9.45289 1.4 22.7631 -250 0
1622 15.4972 9.45289 1.4 23.2411 -250 0
1623 15.9972 9.45289 1.4 23.72 -250 0
1624 16.4972 9.45289 1.4 24.1998 -250 0
1625 16.9972 9.45289 1.4 24.6803 -250 0
1626 17.4972 9.45289 1.4 25.1617 -250 0
1627 17.9972 9.45289 1.4 25.6437 -250 0
1628 18.4972 9.45289 1.4 26.1264 -250 0
1629 18.9972 9.45289 1.4 26.6098 -82.7337 -4.87944
1630 19.4972 9.45289 1.4 27.0937 -83.056 44.3409
1631 19.9972 9.45289 1.4 27.5783 -83.7774 -146.769
1632 20.4972 9.45289 1.4 28.0634 -85.4751 -132.202
1633 20.9972 9.45289 1.4 28.5489 -97.906 78.5737
1634 21.4972 9.45289 1.4 29.035 -96.6872 -50.0309
1635 21.9972 9.45289 1.4 29.5216 -97.517 -179.211
1636 22.4972 9.45289 1.4 30.0086 -250 0
1637 22.9972 9.45289 1.4 30.496 -250 0
1638 23.4972 9.45289 1.4 30.9838 -93.059 15.5607
1639 23.9972 9.45289 1.4 31.472 -77.2179 83.3226
1640 24.4972 9.45289 1.4 31.9605 -76.8168 -148.225
1641 24.9972 9.45289 1.4 32.4494 -73.2101 -40.5883
1642 25.4972 9.45289 1.4 32.9387 -250 0
1643 25.9972 9.45289 1.4 33.4282 -250 0
1644 26.4972 9.45289 1.4 33.9181 -250 0
1645 26.9972 9.45289 1.4 34.4082 -250 0
1646 27.4972 9.45289 1.4 34.8987 -250 0
1647 27.9972 9.45289 1.4 35.3894 -250 0
1648 28.4972 9.45289 1.4 35.8803 -250 0
1649 28.9972 9.45289 1.4 36.3715 -250 0
1650 29.4972 9.45289 1.4 36.863 -250 0
1651 29.9972 9.45289 1.4 37.3546 -250 0
1652 30.4972 9.45289 1.4 37.8465 -250 0
1653 -28.0028 9.95289 1.4 22.1583 -250 0
1654 -27.5028 9.95289 1.4 21.679 -250 0
1655 -27.0028 9.95289 1.4 21.2007 -250 0
1656 -26.5028 9.95289 1.4 20.7235 -250 0
1657 -26.0028 9.95289 1.4 20.2473 -91.4546 94.231
1658 -25.5028 9.95289 1.4 19.7723 -86.5484 -71.8987
1659 -25.0028 9.95289 1.4 19.2985 -78.3797 -112.348
1660 -24.5028 9.95289 1.4 18.8261 -92.512 -137.996
1661 -24.0028 9.95289 1.4 18.3552 -250 0
1662 -23.5028 9.95289 1.4 17.8859 -250 0
1663 -23.0028 9.95289 1.4 17.4182 -250 0
1664 -22.5028 9.95289 1.4 16.9524 -250 0
1665 -22.0028 9.95289 1.4 16.4886 -250 0
1666 -21.5028 9.95289 1.4 16.027 -250 0
1667 -21.0028 9.95289 1.4 15.5678 -250 0
1668 -20.5028 9.95289 1.4 15.1111 -250 0
1669 -20.0028 9.95289 1.4 14.6573 -250 0
1670 -19.5028 9.95289 1.4 14.2066 -250 0
1671 -19.0028 9.95289 1.4 13.7593 -250 0
1672 -18.5028 9.95289 1.4 13.3157 -250 0
1673 -18.0028 9.95289 1.4 12.8763 -250 0
1674 -17.5028 9.95289 1.4 12.4414 -250 0
1675 -17.0028 9.95289 1.4 12.0116 -250 0
1676 -16.5028 9.95289 1.4 11.5874 -250 0
1677 -16.0028 9.95289 1.4 11.1696 -250 0
1678 -15.5028 9.95289 1.4 10.7587 -250 0
1679 -15.0028 9.95289 1.4 10.3557 -250 0
1680 -14.5028 9.95289 1.4 9.96145 -250 0
1681 -14.0028 9.95289 1.4 9.5771 -250 0
1682 -13.5028 9.95289 1.4 9.20387 -78.9539 67.4904
1683 -13.0028 9.95289 1.4 8.84316 -250 0
1684 -12.5028 9.95289 1.4 8.49658 -58.0398 -98.4256
1685 -12.0028 9.95289 1.4 8.16592 -57.9359 140.302
1686 -11.5028 9.95289 1.4 7.85319 -58.6865 -48.2145
1687 -11.0028 9.95289 1.4 7.56062 -79.5098 10.6191
1688 -10.5028 9.95289 1.4 7.29063 -88.0122 140.849
1689 -10.0028 9.95289 1.4 7.04583 -250 0
1690 -9.50282 9.95289 1.4 6.82891 -81.7889 -143.324
1691 -9.00282 9.95289 1.4 6.64262 -68.8312 -11.4572
1692 -8.50282 9.95289 1.4 6.48959 -69.3656 76.9932
1693 -8.00282 9.95289 1.4 6.37221 -72.4549 128.35
1694 -7.50282 9.95289 1.4 6.29249 -70.0936 -133.053
1695 -7.00282 9.95289 1.4 6.25186 -99.0552 -135.074
1696 -6.50282 9.95289 1.4 6.25109 -79.73 -2.28684
1697 -6.00282 9.95289 1.4 6.29019 -76.5671 -109.325
1698 -5.50282 9.95289 1.4 6.36843 -84.7866 24.9558
1699 -5.00282 9.95289 1.4 6.48438 -92.515 -104.355
1700 -4.50282 9.95289 1.4 6.63608 -100.562 77.6695
1701 -4.00282 9.95289 1.4 6.82114 -82.3862 -7.78432
1702 -3.50282 9.95289 1.4 7.03693 -63.7632 36.2925
1703 -3.00282 9.95289 1.4 7.28071 -84.0217 143.248
1704 -2.50282 9.95289 1.4 7.54977 -76.9782 -17.3028
1705 -2.00282 9.95289 1.4 7.84152 -72.5701 38.6546
1706 -1.50282 9.95289 1.4 8.15351 -76.3001 -25.2233
1707 -1.00282 9.95289 1.4 8.48352 -75.6432 -123.323
1708 -0.50282 9.95289 1.4 8.82952 -74.8363 137.553
1709 -0.00282 9.95289 1.4 9.18971 -81.7274 86.5947
1710 0.49718 9.95289 1.4 9.56249 -60.0798 -54.452
1711 0.99718 9.95289 1.4 9.94643 -69.2176 126.3
1712 1.49718 9.95289 1.4 10.3403 -87.8759 -49.7702
1713 1.99718 9.95289 1.4 10.743 -88.479 -49.6079
1714 2.49718 9.95289 1.4 11.1536 -250 0
1715 2.99718 9.95289 1.4 11.5712 -76.0301 -14.7254
1716 3.49718 9.95289 1.4 11.9951 -74.2191 -24.8587
1717 3.99718 9.95289 1.4 12.4247 -68.9204 118.055
1718 4.49718 9.95289 1.4 12.8594 -74.4416 -118.557
1719 4.99718 9.95289 1.4 13.2987 -65.3373 -120.76
1720 5.49718 9.95289 1.4 13.7421 -80.9662 -37.2062
1721 5.99718 9.95289 1.4 14.1893 -77.7506 158.83
1722 6.49718 9.95289 1.4 14.6399 -250 0
1723 6.99718 9.95289 1.4 15.0936 -250 0
1724 7.49718 9.95289 1.4 15.5501 -84.0098 -118.807
1725 7.99718 9.95289 1.4 16.0093 -75.8382 121.256
1726 8.49718 9.95289 1.4 16.4708 -79.11 -46.665
1727 8.99718 9.95289 1.4 16.9345 -80.1021 136.913
1728 9.49718 9.95289 1.4 17.4002 -78.475 -83.1196
1729 9.99718 9.95289 1.4 17.8678 -250 0
1730 10.4972 9.95289 1.4 18.3371 -250 0
1731 10.9972 9.95289 1.4 18.8079 -250 0
1732 11.4972 9.95289 1.4 19.2803 -250 0
1733 11.9972 9.95289 1.4 19.754 -250 0
1734 12.4972 9.95289 1.4 20.2289 -250 0
1735 12.9972 9.95289 1.4 20.7051 -250 0
1736 13.4972 9.95289 1.4 21.1823 -89.5555 29.0634
1737 13.9972 9.95289 1.4 21.6606 -250 0
1738 14.4972 9.95289 1.4 22.1398 -250 0
1739 14.9972 9.95289 1.4 22.6199 -250 0
1740 15.4972 9.95289 1.4 23.1009 -250 0
1741 15.9972 9.95289 1.4 23.5827 -250 0
1742 16.4972 9.95289 1.4 24.0652 -250 0
1743 16.9972 9.95289 1.4 24.5484 -250 0
1744 17.4972 9.95289 1.4 25.0322 -250 0
1745 17.9972 9.95289 1.4 25.5167 -82.3184 58.6635
1746 18.4972 9.95289 1.4 26.0018 -250 0
1747 18.9972 9.95289 1.4 26.4874 -90.2285 -78.1364
1748 19.4972 9.95289 1.4 26.9736 -80.9372 -48.0889
1749 19.9972 9.95289 1.4 27.4602 -93.7671 15.0156
1750 20.4972 9.95289 1.4 27.9474 -96.0329 -22.2758
1751 20.9972 9.95289 1.4 28.4349 -75.1317 27.7229
1752 21.4972 9.95289 1.4 28.9229 -81.7503 76.8424
1753 21.9972 9.95289 1.4 29.4113 -250 0
1754 22.4972 9.95289 1.4 29.9001 -250 0
1755 22.9972 9.95289 1.4 30.3893 -250 0
1756 23.4972 9.95289 1.4 30.8788 -250 0
1757 23.9972 9.95289 1.4 31.3686 -93.2698 92.2569
1758 24.4972 9.95289 1.4 31.8587 -250 0
1759 24.9972 9.95289 1.4 32.3492 -250 0
1760 25.4972 9.95289 1.4 32.8399 -250 0
1761 25.9972 9.95289 1.4 33.3309 -250 0
1762 26.4972 9.95289 1.4 33.8222 -250 0
1763 26.9972 9.95289 1.4 34.3137 -250 0
1764 27.4972 9.95289 1.4 34.8055 -250 0
1765 27.9972 9.95289 1.4 35.2975 -250 0
1766 28.4972 9.95289 1.4 35.7897 -250 0
1767 28.9972 9.95289 1.4 36.2821 -250 0
1768 29.4972 9.95289 1.4 36.7747 -250 0
1769 29.9972 9.95289 1.4 37.2676 -250 0
1770 30.4972 9.95289 1.4 37.7606 -250 0
1771 -28.0028 10.4529 1.4 22.0226 -250 0
1772 -27.5028 10.4529 1.4 21.5403 -250 0
1773 -27.0028 10.4529 1.4 21.0588 -250 0
1774 -26.5028 10.4529 1.4 20.5783 -250 0
1775 -26.0028 10.4529 1.4 20.0986 -250 0
1776 -25.5028 10.4529 1.4 19.62 -87.6333 -102.073
1777 -25.0028 10.4529 1.4 19.1425 -85.8363 123.145
1778 -24.5028 10.4529 1.4 18.6662 -81.7729 147.554
1779 -24.0028 10.4529 1.4 18.1911 -250 0
1780 -23.5028 10.4529 1.4 17.7174 -250 0
1781 -23.0028 10.4529 1.4 17.2452 -250 0
1782 -22.5028 10.4529 1.4 16.7746 -250 0
1783 -22.0028 10.4529 1.4 16.3058 -250 0
1784 -21.5028 10.4529 1.4 15.8388 -250 0
1785 -21.0028 10.4529 1.4 15.374 -250 0
1786 -20.5028 10.4529 1.4 14.9114 -250 0
1787 -20.0028 10.4529 1.4 14.4513 -250 0
1788 -19.5028 10.4529 1.4 13.9939 -250 0
1789 -19.0028 10.4529 1.4 13.5396 -250 0
1790 -18.5028 10.4529 1.4 13.0886 -250 0
1791 -18.0028 10.4529 1.4 12.6413 -250 0
1792 -17.5028 10.4529 1.4 12.198 -250 0
1793 -17.0028 10.4529 1.4 11.7593 -250 0
1794 -16.5028 10.4529 1.4 11.3257 -250 0
1795 -16.0028 10.4529 1.4 10.8978 -250 0
1796 -15.5028 10.4529 1.4 10.4763 -250 0
1797 -15.0028 10.4529 1.4 10.062 -250 0
1798 -14.5028 10.4529 1.4 9.65577 -250 0
1799 -14.0028 10.4529 1.4 9.25874 -250 0
1800 -13.5028 10.4529 1.4 8.87213 -250 0
1801 -13.0028 10.4529 1.4 8.49735 -250 0
1802 -12.5028 10.4529 1.4 8.13606 -250 0
1803 -12.0028 10.4529 1.4 7.79011 -56.9242 -172.362
1804 -11.5028 10.4529 1.4 7.46164 -57.6564 55.9045
1805 -11.0028 10.4529 1.4 7.15307 -86.1318 -39.9531
1806 -10.5028 10.4529 1.4 6.86708 -96.0246 125.489
1807 -10.0028 10.4529 1.4 6.6066 -71.7718 145.169
1808 -9.50282 10.4529 1.4 6.37476 -70.9073 -49.9403
1809 -9.00282 10.4529 1.4 6.17478 -72.3021 114.075
1810 -8.50282 10.4529 1.4 6.00985 -71.6489 11.634
1811 -8.00282 10.4529 1.4 5.88291 -69.0495 112.738
1812 -7.50282 10.4529 1.4 5.79646 -71.2729 -175.629
1813 -7.00282 10.4529 1.4 5.75233 -72.3081 -98.1626
1814 -6.50282 10.4529 1.4 5.75149 -72.3266 -117.126
1815 -6.00282 10.4529 1.4 5.79397 -80.6393 -72.5139
1816 -5.50282 10.4529 1.4 5.87881 -86.3624 9.91785
1817 -5.00282 10.4529 1.4 6.00423 -93.9874 -129.773
1818 -4.50282 10.4529 1.4 6.16775 -101.118 45.7539
1819 -4.00282 10.4529 1.4 6.36643 -68.8137 -179.711
1820 -3.50282 10.4529 1.4 6.59711 -85.197 138.833
1821 -3.00282 10.4529 1.4 6.85654 -91.0331 -159.64
1822 -2.50282 10.4529 1.4 7.14161 -79.017 -72.1647
1823 -2.00282 10.4529 1.4 7.44936 -83.5115 165.099
1824 -1.50282 10.4529 1.4 7.7771 -71.3486 162.766
1825 -1.00282 10.4529 1.4 8.12242 -79.8673 72.9921
1826 -0.50282 10.4529 1.4 8.48316 -81.553 36.9669
1827 -0.00282 10.4529 1.4 8.85745 -71.4858 45.2235
1828 0.49718 10.4529 1.4 9.24363 -76.5471 96.4204
1829 0.99718 10.4529 1.4 9.64028 -78.7607 175.359
1830 1.49718 10.4529 1.4 10.0462 -88.2387 113.307
1831 1.99718 10.4529 1.4 10.4602 -250 0
1832 2.49718 10.4529 1.4 10.8815 -250 0
1833 2.99718 10.4529 1.4 11.3091 -250 0
1834 3.49718 10.4529 1.4 11.7425 -76.9644 32.4636
1835 3.99718 10.4529 1.4 12.181 -83.6365 -135.419
1836 4.49718 10.4529 1.4 12.6241 -63.5172 169.306
1837 4.99718 10.4529 1.4 13.0713 -70.1727 170.37
1838 5.49718 10.4529 1.4 13.5221 -77.6986 74.75
1839 5.99718 10.4529 1.4 13.9764 -250 0
1840 6.49718 10.4529 1.4 14.4336 -250 0
1841 6.99718 10.4529 1.4 14.8936 -250 0
1842 7.49718 10.4529 1.4 15.3561 -250 0
1843 7.99718 10.4529 1.4 15.8209 -84.4012 -9.22986
1844 8.49718 10.4529 1.4 16.2877 -77.6589 -149.958
1845 8.99718 10.4529 1.4 16.7565 -79.7014 41.9962
1846 9.49718 10.4529 1.4 17.227 -80.6485 -171.883
1847 9.99718 10.4529 1.4 17.6992 -250 0
1848 10.4972 10.4529 1.4 18.1728 -250 0
1849 10.9972 10.4529 1.4 18.6478 -250 0
1850 11.4972 10.4529 1.4 19.1241 -250 0
1851 11.9972 10.4529 1.4 19.6016 -250 0
1852 12.4972 10.4529 1.4 20.0802 -250 0
1853 12.9972 10.4529 1.4 20.5598 -250 0
1854 13.4972 10.4529 1.4 21.0403 -250 0
1855 13.9972 10.4529 1.4 21.5217 -250 0
1856 14.4972 10.4529 1.4 22.004 -250 0
1857 14.9972 10.4529 1.4 22.487 -250 0
1858 15.4972 10.4529 1.4 22.9708 -250 0
1859 15.9972 10.4529 1.4 23.4552 -250 0
1860 16.4972 10.4529 1.4 23.9403 -250 0
1861 16.9972 10.4529 1.4 24.4259 -250 0
1862 17.4972 10.4529 1.4 24.9122 -250 0
1863 17.9972 10.4529 1.4 25.399 -79.1661 -49.0232
1864 18.4972 10.4529 1.4 25.8862 -85.4925 -129.141
1865 18.9972 10.4529 1.4 26.374 -90.3655 121.155
1866 19.4972 10.4529 1.4 26.8622 -88.0612 36.9761
1867 19.9972 10.4529 1.4 27.3508 -96.894 -118.997
1868 20.4972 10.4529 1.4 27.8399 -74.8714 -63.6668
1869 20.9972 10.4529 1.4 28.3293 -250 0
1870 21.4972 10.4529 1.4 28.8191 -250 0
1871 21.9972 10.4529 1.4 29.3092 -250 0
1872 22.4972 10.4529 1.4 29.7997 -250 0
1873 22.9972 10.4529 1.4 30.2904 -250 0
1874 23.4972 10.4529 1.4 30.7815 -250 0
1875 23.9972 10.4529 1.4 31.2729 -250 0
1876 24.4972 10.4529 1.4 31.7645 -250 0
1877 24.9972 10.4529 1.4 32.2564 -250 0
1878 25.4972 10.4529 1.4 32.7485 -250 0
1879 25.9972 10.4529 1.4 33.2408 -250 0
1880 26.4972 10.4529 1.4 33.7334 -250 0
1881 26.9972 10.4529 1.4 34.2262 -250 0
1882 27.4972 10.4529 1.4 34.7192 -250 0
1883 27.9972 10.4529 1.4 35.2124 -250 0
1884 28.4972 10.4529 1.4 35.7058 -250 0
1885 28.9972 10.4529 1.4 36.1994 -250 0
1886 29.4972 10.4529 1.4 36.6931 -250 0
1887 29.9972 10.4529 1.4 37.187 -250 0
1888 30.4972 10.4529 1.4 37.6811 -250 0
1889 -28.0028 10.9529 1.4 21.8974 -250 0
1890 -27.5028 10.9529 1.4 21.4123 -250 0
1891 -27.0028 10.9529 1.4 20.9279 -250 0
1892 -26.5028 10.9529 1.4 20.4443 -250 0
1893 -26.0028 10.9529 1.4 19.9614 -250 0
1894 -25.5028 10.9529 1.4 19.4795 -250 0
1895 -25.0028 10.9529 1.4 18.9984 -97.5438 119.405
1896 -24.5028 10.9529 1.4 18.5184 -87.9409 -20.0183
1897 -24.0028 10.9529 1.4 18.0394 -250 0
1898 -23.5028 10.9529 1.4 17.5616 -250 0
1899 -23.0028 10.9529 1.4 17.0851 -250 0
1900 -22.5028 10.9529 1.4 16.61 -250 0
1901 -22.0028 10.9529 1.4 16.1364 -250 0
1902 -21.5028 10.9529 1.4 15.6644 -250 0
1903 -21.0028 10.9529 1.4 15.1942 -250 0
1904 -20.5028 10.9529 1.4 14.7259 -250 0
1905 -20.0028 10.9529 1.4 14.2599 -250 0
1906 -19.5028 10.9529 1.4 13.7962 -250 0
1907 -19.0028 10.9529 1.4 13.3351 -250 0
1908 -18.5028 10.9529 1.4 12.8769 -250 0
1909 -18.0028 10.9529 1.4 12.422 -250 0
1910 -17.5028 10.9529 1.4 11.9706 -250 0
1911 -17.0028 10.9529 1.4 11.5233 -250 0
1912 -16.5028 10.9529 1.4 11.0804 -250 0
1913 -16.0028 10.9529 1.4 10.6427 -250 0
1914 -15.5028 10.9529 1.4 10.2106 -250 0
1915 -15.0028 10.9529 1.4 9.78505 -250 0
1916 -14.5028 10.9529 1.4 9.36683 -250 0
1917 -14.0028 10.9529 1.4 8.957 -250 0
1918 -13.5028 10.9529 1.4 8.55676 -250 0
1919 -13.0028 10.9529 1.4 8.16753 -250 0
1920 -12.5028 10.9529 1.4 7.79095 -250 0
1921 -12.0028 10.9529 1.4 7.42895 -250 0
1922 -11.5028 10.9529 1.4 7.08376 -56.5346 115.049
1923 -11.0028 10.9529 1.4 6.75796 -56.5249 -32.1002
1924 -10.5028 10.9529 1.4 6.45448 -90.6292 -35.5378
1925 -10.0028 10.9529 1.4 6.17663 -73.1539 -96.9042
1926 -9.50282 10.9529 1.4 5.92799 -250 0
1927 -9.00282 10.9529 1.4 5.71239 -250 0
1928 -8.50282 10.9529 1.4 5.5337 -250 0
1929 -8.00282 10.9529 1.4 5.39557 -81.4943 152.138
1930 -7.50282 10.9529 1.4 5.30118 -66.2624 130.067
1931 -7.00282 10.9529 1.4 5.25289 -69.2024 -152.121
1932 -6.50282 10.9529 1.4 5.25197 -71.6996 -143.929
1933 -6.00282 10.9529 1.4 5.29845 -81.967 76.6175
1934 -5.50282 10.9529 1.4 5.3911 -80.0507 134.61
1935 -5.00282 10.9529 1.4 5.52759 -95.4367 -155.33
1936 -4.50282 10.9529 1.4 5.70479 -101.705 12.3239
1937 -4.00282 10.9529 1.4 5.91904 -71.3276 165.619
1938 -3.50282 10.9529 1.4 6.16647 -68.0189 -1.74671
1939 -3.00282 10.9529 1.4 6.44327 -83.3134 -78.2307
1940 -2.50282 10.9529 1.4 6.74582 -85.4566 -34.9084
1941 -2.00282 10.9529 1.4 7.07082 -80.7016 50.5098
1942 -1.50282 10.9529 1.4 7.41531 -75.7763 -76.2941
1943 -1.00282 10.9529 1.4 7.77671 -92.4425 -21.5866
1944 -0.50282 10.9529 1.4 8.15276 -72.1201 -66.8233
1945 -0.00282 10.9529 1.4 8.54154 -67.6234 15.4058
1946 0.49718 10.9529 1.4 8.94138 -91.0543 7.29503
1947 0.99718 10.9529 1.4 9.35086 -88.022 -88.7561
1948 1.49718 10.9529 1.4 9.76877 -88.6038 -90.9646
1949 1.99718 10.9529 1.4 10.1941 -250 0
1950 2.49718 10.9529 1.4 10.6259 -250 0
1951 2.99718 10.9529 1.4 11.0635 -92.1324 -132.089
1952 3.49718 10.9529 1.4 11.5061 -75.6389 2.95935
1953 3.99718 10.9529 1.4 11.9533 -65.0249 86.099
1954 4.49718 10.9529 1.4 12.4045 -67.5167 -168.49
1955 4.99718 10.9529 1.4 12.8593 -77.6619 -10.3636
1956 5.49718 10.9529 1.4 13.3174 -250 0
1957 5.99718 10.9529 1.4 13.7783 -250 0
1958 6.49718 10.9529 1.4 14.2419 -250 0
1959 6.99718 10.9529 1.4 14.7079 -250 0
1960 7.49718 10.9529 1.4 15.1761 -250 0
1961 7.99718 10.9529 1.4 15.6462 -86.0026 -158.568
1962 8.49718 10.9529 1.4 16.1181 -84.8357 97.355
1963 8.99718 10.9529 1.4 16.5917 -77.9852 -56.4386
1964 9.49718 10.9529 1.4 17.0668 -80.1293 128.467
1965 9.99718 10.9529 1.4 17.5432 -80.5511 -88.3346
1966 10.4972 10.9529 1.4 18.021 -250 0
1967 10.9972 10.9529 1.4 18.4999 -250 0
1968 11.4972 10.9529 1.4 18.9799 -250 0
1969 11.9972 10.9529 1.4 19.4609 -250 0
1970 12.4972 10.9529 1.4 19.9428 -250 0
1971 12.9972 10.9529 1.4 20.4257 -250 0
1972 13.4972 10.9529 1.4 20.9093 -250 0
1973 13.9972 10.9529 1.4 21.3936 -250 0
1974 14.4972 10.9529 1.4 21.8787 -250 0
1975 14.9972 10.9529 1.4 22.3645 -250 0
1976 15.4972 10.9529 1.4 22.8508 -250 0
1977 15.9972 10.9529 1.4 23.3377 -250 0
1978 16.4972 10.9529 1.4 23.8252 -250 0
1979 16.9972 10.9529 1.4 24.3132 -250 0
1980 17.4972 10.9529 1.4 24.8016 -250 0
1981 17.9972 10.9529 1.4 25.2905 -88.9302 64.443
1982 18.4972 10.9529 1.4 25.7799 -85.6128 -75.6868
1983 18.9972 10.9529 1.4 26.2696 -102.389 -162.34
1984 19.4972 10.9529 1.4 26.7597 -81.7886 137.354
1985 19.9972 10.9529 1.4 27.2502 -81.5585 3.98857
1986 20.4972 10.9529 1.4 27.741 -250 0
1987 20.9972 10.9529 1.4 28.2321 -250 0
1988 21.4972 10.9529 1.4 28.7236 -79.6418 0.517631
1989 21.9972 10.9529 1.4 29.2153 -250 0
1990 22.4972 10.9529 1.4 29.7073 -250 0
1991 22.9972 10.9529 1.4 30.1996 -250 0
1992 23.4972 10.9529 1.4 30.6921 -250 0
1993 23.9972 10.9529 1.4 31.1849 -250 0
1994 24.4972 10.9529 1.4 31.6778 -81.8592 -56.2996
1995 24.9972 10.9529 1.4 32.171 -250 0
1996 25.4972 10.9529 1.4 32.6644 -250 0
1997 25.9972 10.9529 1.4 33.1581 -250 0
1998 26.4972 10.9529 1.4 33.6518 -250 0
1999 26.9972 10.9529 1.4 34.1458 -250 0
2000 27.4972 10.9529 1.4 34.64 -250 0
2001 27.9972 10.9529 1.4 35.1343 -250 0
2002 28.4972 10.9529 1.4 35.6288 -250 0
2003 28.9972 10.9529 1.4 36.1234 -250 0
2004 29.4972 10.9529 1.4 36.6182 -250 0
2005 29.9972 10.9529 1.4 37.1131 -250 0
2006 30.4972 10.9529 1.4 37.6081 -250 0
2007 -28.0028 11.4529 1.4 21.7831 -250 0
2008 -27.5028 11.4529 1.4 21.2953 -250 0
2009 -27.0028 11.4529 1.4 20.8082 -250 0
2010 -26.5028 11.4529 1.4 20.3217 -250 0
2011 -26.0028 11.4529 1.4 19.8359 -87.786 13.168
2012 -25.5028 11.4529 1.4 19.3508 -87.6685 165.734
2013 -25.0028 11.4529 1.4 18.8665 -75.7558 -6.07072
2014 -24.5028 11.4529 1.4 18.383 -75.878 -130.566
2015 -24.0028 11.4529 1.4 17.9004 -250 0
2016 -23.5028 11.4529 1.4 17.4188 -250 0
2017 -23.0028 11.4529 1.4 16.9383 -83.8102 -158.366
2018 -22.5028 11.4529 1.4 16.4589 -72.5267 -16.6473
2019 -22.0028 11.4529 1.4 15.9808 -73.2224 43.567
2020 -21.5028 11.4529 1.4 15.5041 -72.2227 83.111
2021 -21.0028 11.4529 1.4 15.0289 -73.7292 107.974
2022 -20.5028 11.4529 1.4 14.5553 -86.752 -121.863
2023 -20.0028 11.4529 1.4 14.0836 -68.0503 22.7676
2024 -19.5028 11.4529 1.4 13.6139 -65.7803 22.3193
2025 -19.0028 11.4529 1.4 13.1464 -78.4841 42.9396
2026 -18.5028 11.4529 1.4 12.6814 -74.2841 -24.8681
2027 -18.0028 11.4529 1.4 12.2192 -62.5677 116.889
2028 -17.5028 11.4529 1.4 11.7601 -62.2223 106.842
2029 -17.0028 11.4529 1.4 11.3044 -61.0882 109.583
2030 -16.5028 11.4529 1.4 10.8526 -57.9977 67.3327
2031 -16.0028 11.4529 1.4 10.4053 -60.6575 -28.427
2032 -15.5028 11.4529 1.4 9.96295 -60.2913 136.08
2033 -15.0028 11.4529 1.4 9.52631 -66.7102 -152.889
2034 -14.5028 11.4529 1.4 9.09621 -68.6964 -54.4185
2035 -14.0028 11.4529 1.4 8.6736 -70.0006 -122.943
2036 -13.5028 11.4529 1.4 8.25965 -84.506 98.9056
2037 -13.0028 11.4529 1.4 7.8557 -69.1231 -89.9675
2038 -12.5028 11.4529 1.4 7.46341 -67.79 -146.633
2039 -12.0028 11.4529 1.4 7.08469 -65.2426 48.5124
2040 -11.5028 11.4529 1.4 6.72184 -61.0216 -61.5421
2041 -11.0028 11.4529 1.4 6.37758 -67.9254 172.067
2042 -10.5028 11.4529 1.4 6.05507 -59.2353 106.142
2043 -10.0028 11.4529 1.4 5.75797 -75.9566 -80.1006
2044 -9.50282 11.4529 1.4 5.49041 -250 0
2045 -9.00282 11.4529 1.4 5.2569 -62.4 66.9594
2046 -8.50282 11.4529 1.4 5.06215 -65.2296 -117.8
2047 -8.00282 11.4529 1.4 4.91077 -70.2337 -9.49828
2048 -7.50282 11.4529 1.4 4.80687 -78.5483 58.4667
2049 -7.00282 11.4529 1.4 4.75357 -48.2588 -14.0337
2050 -6.50282 11.4529 1.4 4.75255 -48.1089 -10.7649
2051 -6.00282 11.4529 1.4 4.80386 -49.97 161.337
2052 -5.50282 11.4529 1.4 4.90586 -43.8027 -107.115
2053 -5.00282 11.4529 1.4 5.05548 -48.549 -105.323
2054 -4.50282 11.4529 1.4 5.24864 -49.5918 -57.1425
2055 -4.00282 11.4529 1.4 5.48074 -47.1754 31.4831
2056 -3.50282 11.4529 1.4 5.74708 -54.4294 -132.011
2057 -3.00282 11.4529 1.4 6.04312 -54.3605 167.952
2058 -2.50282 11.4529 1.4 6.36472 -50.3689 -112.753
2059 -2.00282 11.4529 1.4 6.7082 -50.7259 -33.8567
2060 -1.50282 11.4529 1.4 7.07038 -52.4411 -19.7575
2061 -1.00282 11.4529 1.4 7.44854 -53.9737 -46.9746
2062 -0.50282 11.4529 1.4 7.84035 -57.6181 -124.376
2063 -0.00282 11.4529 1.4 8.24387 -49.0545 118.544
2064 0.49718 11.4529 1.4 8.65747 -48.4706 7.15447
2065 0.99718 11.4529 1.4 9.07976 -57.3126 -156.626
2066 1.49718 11.4529 1.4 9.5096 -59.5917 -82.0059
2067 1.99718 11.4529 1.4 9.946 -63.6291 -67.1424
2068 2.49718 11.4529 1.4 10.3881 -60.3984 -80.9548
2069 2.99718 11.4529 1.4 10.8353 -67.0847 1.81403
2070 3.49718 11.4529 1.4 11.2869 -71.3166 136.632
2071 3.99718 11.4529 1.4 11.7424 -62.5831 -12.7698
2072 4.49718 11.4529 1.4 12.2014 -63.356 122.125
2073 4.99718 11.4529 1.4 12.6635 -59.1651 -161.745
2074 5.49718 11.4529 1.4 13.1284 -55.4264 -126.34
2075 5.99718 11.4529 1.4 13.5958 -56.8231 -110.381
2076 6.49718 11.4529 1.4 14.0654 -57.0611 -94.6049
2077 6.99718 11.4529 1.4 14.5371 -79.5463 48.4567
2078 7.49718 11.4529 1.4 15.0106 -69.6579 15.6121
2079 7.99718 11.4529 1.4 15.4857 -71.8144 74.5709
2080 8.49718 11.4529 1.4 15.9624 -75.5069 108.939
2081 8.99718 11.4529 1.4 16.4404 -64.4316 -109.85
2082 9.49718 11.4529 1.4 16.9198 -68.4565 -20.8174
2083 9.99718 11.4529 1.4 17.4002 -69.3113 66.4077
2084 10.4972 11.4529 1.4 17.8818 -62.3921 -12.1437
2085 10.9972 11.4529 1.4 18.3643 -74.5344 -29.7151
2086 11.4972 11.4529 1.4 18.8478 -74.2472 -34.8504
2087 11.9972 11.4529 1.4 19.3321 -65.7235 -149.492
2088 12.4972 11.4529 1.4 19.8172 -65.4596 -156.269
2089 12.9972 11.4529 1.4 20.303 -65.8715 -151.781
2090 13.4972 11.4529 1.4 20.7894 -66.3202 -160.634
2091 13.9972 11.4529 1.4 21.2765 -73.408 131.208
2092 14.4972 11.4529 1.4 21.7642 -61.5514 -83.1856
2093 14.9972 11.4529 1.4 22.2525 -65.7091 69.7206
2094 15.4972 11.4529 1.4 22.7412 -70.455 155.678
2095 15.9972 11.4529 1.4 23.2304 -67.8305 -63.4829
2096 16.4972 11.4529 1.4 23.7201 -250 0
2097 16.9972 11.4529 1.4 24.2102 -80.4737 112.41
2098 17.4972 11.4529 1.4 24.7007 -72.4639 134.982
2099 17.9972 11.4529 1.4 25.1916 -77.7373 -158.574
2100 18.4972 11.4529 1.4 25.6828 -76.1075 -147.016
2101 18.9972 11.4529 1.4 26.1743 -74.6973 -145.811
2102 19.4972 11.4529 1.4 26.6662 -81.6223 -170.752
2103 19.9972 11.4529 1.4 27.1583 -74.3964 98.0071
2104 20.4972 11.4529 1.4 27.6508 -75.3957 78.374
2105 20.9972 11.4529 1.4 28.1435 -250 0
2106 21.4972 11.4529 1.4 28.6365 -80.2587 -100.587
2107 21.9972 11.4529 1.4 29.1297 -250 0
2108 22.4972 11.4529 1.4 29.6231 -250 0
2109 22.9972 11.4529 1.4 30.1167 -250 0
2110 23.4972 11.4529 1.4 30.6106 -250 0
2111 23.9972 11.4529 1.4 31.1046 -250 0
2112 24.4972 11.4529 1.4 31.5989 -66.1785 11.8193
2113 24.9972 11.4529 1.4 32.0933 -250 0
2114 25.4972 11.4529 1.4 32.5879 -250 0
2115 25.9972 11.4529 1.4 33.0826 -250 0
2116 26.4972 11.4529 1.4 33.5775 -250 0
2117 26.9972 11.4529 1.4 34.0726 -250 0
2118 27.4972 11.4529 1.4 34.5678 -250 0
2119 27.9972 11.4529 1.4 35.0631 -250 0
2120 28.4972 11.4529 1.4 35.5586 -250 0
2121 28.9972 11.4529 1.4 36.0542 -250 0
2122 29.4972 11.4529 1.4 36.5499 -250 0
2123 29.9972 11.4529 1.4 37.0457 -250 0
2124 30.4972 11.4529 1.4 37.5416 -250 0
2125 -28.0028 11.9529 1.4 21.6796 -250 0
2126 -27.5028 11.9529 1.4 21.1895 -250 0
2127 -27.0028 11.9529 1.4 20.6999 -88.1777 -30.1405
2128 -26.5028 11.9529 1.4 20.2108 -88.0631 127.126
2129 -26.0028 11.9529 1.4 19.7222 -75.1355 -71.1909
2130 -25.5028 11.9529 1.4 19.2343 -75.4519 163.408
2131 -25.0028 11.9529 1.4 18.7469 -68.678 108.552
2132 -24.5028 11.9529 1.4 18.2603 -85.4835 171.533
2133 -24.0028 11.9529 1.4 17.7744 -250 0
2134 -23.5028 11.9529 1.4 17.2892 -250 0
2135 -23.0028 11.9529 1.4 16.805 -78.5218 -137.078
2136 -22.5028 11.9529 1.4 16.3217 -72.2532 -116.172
2137 -22.0028 11.9529 1.4 15.8395 -69.7465 -104.957
2138 -21.5028 11.9529 1.4 15.3584 -81.147 14.6476
2139 -21.0028 11.9529 1.4 14.8785 -71.0521 29.2857
2140 -20.5028 11.9529 1.4 14.4 -67.4998 24.4645
2141 -20.0028 11.9529 1.4 13.923 -65.6393 -33.7816
2142 -19.5028 11.9529 1.4 13.4477 -60.977 -81.0713
2143 -19.0028 11.9529 1.4 12.9743 -69.1342 -122.423
2144 -18.5028 11.9529 1.4 12.5029 -71.8362 106.534
2145 -18.0028 11.9529 1.4 12.0338 -67.0286 106.985
2146 -17.5028 11.9529 1.4 11.5673 -63.9548 73.4714
2147 -17.0028 11.9529 1.4 11.1037 -59.7954 141.148
2148 -16.5028 11.9529 1.4 10.6435 -56.9773 84.4312
2149 -16.0028 11.9529 1.4 10.1869 -61.048 127.112
2150 -15.5028 11.9529 1.4 9.73467 -62.6285 97.7927
2151 -15.0028 11.9529 1.4 9.28731 -60.8385 59.8557
2152 -14.5028 11.9529 1.4 8.84559 -67.9359 -53.501
2153 -14.0028 11.9529 1.4 8.4104 -78.1901 175.56
2154 -13.5028 11.9529 1.4 7.98281 -96.7965 -153.383
2155 -13.0028 11.9529 1.4 7.5641 -77.6274 27.8022
2156 -12.5028 11.9529 1.4 7.15584 -71.7985 177.016
2157 -12.0028 11.9529 1.4 6.75991 -64.5742 39.6178
2158 -11.5028 11.9529 1.4 6.37861 -73.8557 -114.872
2159 -11.0028 11.9529 1.4 6.01474 -64.974 85.4359
2160 -10.5028 11.9529 1.4 5.67163 -65.3167 4.69143
2161 -10.0028 11.9529 1.4 5.3533 -65.8093 -88.5023
2162 -9.50282 11.9529 1.4 5.0644 -60.9731 162.08
2163 -9.00282 11.9529 1.4 4.81025 -61.0071 -74.4426
2164 -8.50282 11.9529 1.4 4.59661 -61.6686 172.732
2165 -8.00282 11.9529 1.4 4.42936 -65.3189 -7.62079
2166 -7.50282 11.9529 1.4 4.31388 -73.3533 23.7905
2167 -7.00282 11.9529 1.4 4.2544 -47.0585 28.3842
2168 -6.50282 11.9529 1.4 4.25327 -45.9323 79.0794
2169 -6.00282 11.9529 1.4 4.31053 -53.0257 -87.3756
2170 -5.50282 11.9529 1.4 4.42391 -51.1785 -169.566
2171 -5.00282 11.9529 1.4 4.58927 -45.6679 106.964
2172 -4.50282 11.9529 1.4 4.80122 -51.444 -128.119
2173 -4.00282 11.9529 1.4 5.05392 -46.646 152.59
2174 -3.50282 11.9529 1.4 5.34158 -56.0261 119.41
2175 -3.00282 11.9529 1.4 5.65887 -48.2014 -176.812
2176 -2.50282 11.9529 1.4 6.0011 -51.2392 -113.354
2177 -2.00282 11.9529 1.4 6.36424 -52.041 -101.915
2178 -1.50282 11.9529 1.4 6.74491 -54.1087 -108.09
2179 -1.00282 11.9529 1.4 7.14032 -55.1567 142.031
2180 -0.50282 11.9529 1.4 7.54815 -48.9627 41.2421
2181 -0.00282 11.9529 1.4 7.96649 -52.8619 -133.786
2182 0.49718 11.9529 1.4 8.39377 -57.7184 81.6968
2183 0.99718 11.9529 1.4 8.82868 -51.449 154.701
2184 1.49718 11.9529 1.4 9.27017 -63.4963 -69.3565
2185 1.99718 11.9529 1.4 9.71732 -58.9727 -31.2935
2186 2.49718 11.9529 1.4 10.1694 -60.5084 178.657
2187 2.99718 11.9529 1.4 10.6258 -60.6884 166.415
2188 3.49718 11.9529 1.4 11.0859 -59.2214 -160.961
2189 3.99718 11.9529 1.4 11.5494 -56.7409 -138.229
2190 4.49718 11.9529 1.4 12.0157 -55.8705 -136.934
2191 4.99718 11.9529 1.4 12.4847 -53.1579 -108.21
2192 5.49718 11.9529 1.4 12.956 -62.4622 -97.1761
2193 5.99718 11.9529 1.4 13.4294 -63.1499 -153.532
2194 6.49718 11.9529 1.4 13.9047 -60.6159 -164.563
2195 6.99718 11.9529 1.4 14.3816 -74.6288 -58.7562
2196 7.49718 11.9529 1.4 14.86 -74.2522 -54.9291
2197 7.99718 11.9529 1.4 15.3398 -62.6401 -64.5777
2198 8.49718 11.9529 1.4 15.8209 -62.8819 -171.85
2199 8.99718 11.9529 1.4 16.3031 -70.3119 11.4947
2200 9.49718 11.9529 1.4 16.7864 -78.7135 89.854
2201 9.99718 11.9529 1.4 17.2706 -71.6747 -164.786
2202 10.4972 11.9529 1.4 17.7556 -62.5713 -151.533
2203 10.9972 11.9529 1.4 18.2415 -73.4279 128.341
2204 11.4972 11.9529 1.4 18.7281 -74.1336 -79.3713
2205 11.9972 11.9529 1.4 19.2155 -68.1939 -103.49
2206 12.4972 11.9529 1.4 19.7034 -65.5784 -101.238
2207 12.9972 11.9529 1.4 20.1919 -67.268 -114.616
2208 13.4972 11.9529 1.4 20.681 -69.095 -117.49
2209 13.9972 11.9529 1.4 21.1706 -64.4574 159.224
2210 14.4972 11.9529 1.4 21.6607 -62.358 -99.4181
2211 14.9972 11.9529 1.4 22.1512 -62.2697 -6.46427
2212 15.4972 11.9529 1.4 22.6421 -67.2602 -119.484
2213 15.9972 11.9529 1.4 23.1334 -66.7927 -126.877
2214 16.4972 11.9529 1.4 23.6251 -82.269 -69.4319
2215 16.9972 11.9529 1.4 24.1172 -82.1114 75.8465
2216 17.4972 11.9529 1.4 24.6095 -87.0419 129.549
2217 17.9972 11.9529 1.4 25.1021 -77.9719 69.6654
2218 18.4972 11.9529 1.4 25.5951 -87.2198 -22.5302
2219 18.9972 11.9529 1.4 26.0883 -72.0613 67.6827
2220 19.4972 11.9529 1.4 26.5817 -71.1691 148.365
2221 19.9972 11.9529 1.4 27.0754 -79.8863 -108.464
2222 20.4972 11.9529 1.4 27.5694 -250 0
2223 20.9972 11.9529 1.4 28.0635 -250 0
2224 21.4972 11.9529 1.4 28.5578 -250 0
2225 21.9972 11.9529 1.4 29.0524 -250 0
2226 22.4972 11.9529 1.4 29.5471 -250 0
2227 22.9972 11.9529 1.4 30.042 -82.1285 -171.184
2228 23.4972 11.9529 1.4 30.5371 -72.0877 57.1194
2229 23.9972 11.9529 1.4 31.0323 -77.3917 -137.922
2230 24.4972 11.9529 1.4 31.5276 -82.5542 1.03392
2231 24.9972 11.9529 1.4 32.0232 -89.7201 -64.561
2232 25.4972 11.9529 1.4 32.5188 -90.4258 -95.4612
2233 25.9972 11.9529 1.4 33.0146 -250 0
2234 26.4972 11.9529 1.4 33.5105 -250 0
2235 26.9972 11.9529 1.4 34.0065 -250 0
2236 27.4972 11.9529 1.4 34.5027 -250 0
2237 27.9972 11.9529 1.4 34.9989 -250 0
2238 28.4972 11.9529 1.4 35.4953 -85.2405 0.144756
2239 28.9972 11.9529 1.4 35.9917 -250 0
2240 29.4972 11.9529 1.4 36.4883 -250 0
2241 29.9972 11.9529 1.4 36.9849 -250 0
2242 30.4972 11.9529 1.4 37.4817 -250 0
2243 -28.0028 12.4529 1.4 21.5872 -250 0
2244 -27.5028 12.4529 1.4 21.095 -83.1949 46.1899
2245 -27.0028 12.4529 1.4 20.6031 -72.4978 152.942
2246 -26.5028 12.4529 1.4 20.1117 -69.4931 146.555
2247 -26.0028 12.4529 1.4 19.6206 -80.1055 164.796
2248 -25.5028 12.4529 1.4 19.1301 -71.3804 144.397
2249 -25.0028 12.4529 1.4 18.64 -87.6933 68.3896
2250 -24.5028 12.4529 1.4 18.1505 -95.1169 50.0593
2251 -24.0028 12.4529 1.4 17.6616 -71.0048 116.271
2252 -23.5028 12.4529 1.4 17.1733 -64.0287 130.459
2253 -23.0028 12.4529 1.4 16.6857 -65.7169 111.009
2254 -22.5028 12.4529 1.4 16.1988 -65.5563 106.533
2255 -22.0028 12.4529 1.4 15.7128 -65.2283 116.339
2256 -21.5028 12.4529 1.4 15.2277 -72.4167 28.4929
2257 -21.0028 12.4529 1.4 14.7436 -69.4205 -119.89
2258 -20.5028 12.4529 1.4 14.2606 -67.081 -145.072
2259 -20.0028 12.4529 1.4 13.7788 -63.6399 -128.168
2260 -19.5028 12.4529 1.4 13.2983 -65.146 -124.52
2261 -19.0028 12.4529 1.4 12.8193 -66.1041 -113.686
2262 -18.5028 12.4529 1.4 12.342 -66.0404 -106.168
2263 -18.0028 12.4529 1.4 11.8666 -66.764 134.176
2264 -17.5028 12.4529 1.4 11.3932 -64.4799 27.7635
2265 -17.0028 12.4529 1.4 10.9223 -65.3732 -176.775
2266 -16.5028 12.4529 1.4 10.454 -67.854 -61.1662
2267 -16.0028 12.4529 1.4 9.98884 -60.9955 79.0896
2268 -15.5028 12.4529 1.4 9.52719 -66.7973 80.5317
2269 -15.0028 12.4529 1.4 9.0696 -62.6213 54.7293
2270 -14.5028 12.4529 1.4 8.61673 -62.182 90.433
2271 -14.0028 12.4529 1.4 8.16936 -57.34 62.6026
2272 -13.5028 12.4529 1.4 7.72844 -60.997 36.2713
2273 -13.0028 12.4529 1.4 7.29515 -61.3328 4.16686
2274 -12.5028 12.4529 1.4 6.87092 -72.1394 -15.1393
2275 -12.0028 12.4529 1.4 6.45754 -70.4408 116.794
2276 -11.5028 12.4529 1.4 6.05725 -68.9265 -3.95895
2277 -11.0028 12.4529 1.4 5.67279 -76.4031 158.159
2278 -10.5028 12.4529 1.4 5.30763 -87.9168 174.529
2279 -10.0028 12.4529 1.4 4.96601 -66.6562 -102.072
2280 -9.50282 12.4529 1.4 4.65313 -63.9427 64.4795
2281 -9.00282 12.4529 1.4 4.37516 -63.8142 -24.4963
2282 -8.50282 12.4529 1.4 4.13913 -60.1397 167.444
2283 -8.00282 12.4529 1.4 3.95256 -71.9249 -74.455
2284 -7.50282 12.4529 1.4 3.82271 -73.5385 -12.9676
2285 -7.00282 12.4529 1.4 3.75546 -49.7565 71.4554
2286 -6.50282 12.4529 1.4 3.75417 -42.921 91.661
2287 -6.00282 12.4529 1.4 3.81892 -45.3044 -94.4711
2288 -5.50282 12.4529 1.4 3.94646 -48.6966 -89.4796
2289 -5.00282 12.4529 1.4 4.13097 -54.2476 -11.159
2290 -4.50282 12.4529 1.4 4.36523 -46.015 60.6759
2291 -4.00282 12.4529 1.4 4.64172 -54.1276 -42.5182
2292 -3.50282 12.4529 1.4 4.95338 -51.2306 116.754
2293 -3.00282 12.4529 1.4 5.29399 -49.9828 -169.721
2294 -2.50282 12.4529 1.4 5.65833 -57.3752 -175.519
2295 -2.00282 12.4529 1.4 6.04211 -54.9609 166.865
2296 -1.50282 12.4529 1.4 6.44185 -50.1589 59.6817
2297 -1.00282 12.4529 1.4 6.85476 -50.7335 -83.6719
2298 -0.50282 12.4529 1.4 7.27861 -50.1073 102.081
2299 -0.00282 12.4529 1.4 7.71158 -53.4651 -140.637
2300 0.49718 12.4529 1.4 8.15223 -59.7767 -30.4971
2301 0.99718 12.4529 1.4 8.59937 -65.2423 90.8539
2302 1.49718 12.4529 1.4 9.05205 -53.6141 169.711
2303 1.99718 12.4529 1.4 9.50946 -54.3371 150.859
2304 2.49718 12.4529 1.4 9.97097 -68.247 151.545
2305 2.99718 12.4529 1.4 10.436 -52.1502 -128.988
2306 3.49718 12.4529 1.4 10.9042 -60.6096 -159.173
2307 3.99718 12.4529 1.4 11.375 -65.61 173.626
2308 4.49718 12.4529 1.4 11.8483 -68.4448 177.33
2309 4.99718 12.4529 1.4 12.3236 -65.2064 -151.513
2310 5.49718 12.4529 1.4 12.8009 -69.5546 -120.644
2311 5.99718 12.4529 1.4 13.2798 -63.1747 -177.546
2312 6.49718 12.4529 1.4 13.7602 -75.8489 -9.00953
2313 6.99718 12.4529 1.4 14.242 -74.2022 -53.8119
2314 7.49718 12.4529 1.4 14.7249 -62.3176 -170.863
2315 7.99718 12.4529 1.4 15.209 -65.166 -165.511
2316 8.49718 12.4529 1.4 15.6941 -65.4638 -125.776
2317 8.99718 12.4529 1.4 16.1801 -66.5828 176.329
2318 9.49718 12.4529 1.4 16.6669 -70.9618 118.784
2319 9.99718 12.4529 1.4 17.1545 -72.0224 125.366
2320 10.4972 12.4529 1.4 17.6427 -68.6127 62.8995
2321 10.9972 12.4529 1.4 18.1316 -72.7213 79.4161
2322 11.4972 12.4529 1.4 18.6211 -65.9836 162.45
2323 11.9972 12.4529 1.4 19.1112 -82.8446 -171.774
2324 12.4972 12.4529 1.4 19.6017 -75.3172 -71.683
2325 12.9972 12.4529 1.4 20.0927 -65.3991 -166.406
2326 13.4972 12.4529 1.4 20.5842 -67.8881 -33.238
2327 13.9972 12.4529 1.4 21.076 -71.899 14.6866
2328 14.4972 12.4529 1.4 21.5682 -66.8686 -87.799
2329 14.9972 12.4529 1.4 22.0608 -67.9014 -91.6868
2330 15.4972 12.4529 1.4 22.5537 -66.008 -126.137
2331 15.9972 12.4529 1.4 23.0469 -63.776 -56.1889
2332 16.4972 12.4529 1.4 23.5404 -69.3871 -83.7485
2333 16.9972 12.4529 1.4 24.0342 -67.9476 -119.754
2334 17.4972 12.4529 1.4 24.5282 -67.3006 -107.202
2335 17.9972 12.4529 1.4 25.0224 -68.6695 -161.846
2336 18.4972 12.4529 1.4 25.5169 -66.5917 -147.719
2337 18.9972 12.4529 1.4 26.0116 -76.3453 151.276
2338 19.4972 12.4529 1.4 26.5065 -74.6449 102.007
2339 19.9972 12.4529 1.4 27.0015 -75.7422 57.3996
2340 20.4972 12.4529 1.4 27.4968 -75.9107 117.524
2341 20.9972 12.4529 1.4 27.9922 -80.0563 -165.038
2342 21.4972 12.4529 1.4 28.4878 -82.9095 63.5361
2343 21.9972 12.4529 1.4 28.9835 -250 0
2344 22.4972 12.4529 1.4 29.4794 -81.7862 113.454
2345 22.9972 12.4529 1.4 29.9754 -80.4525 -36.3413
2346 23.4972 12.4529 1.4 30.4715 -78.7996 75.7978
2347 23.9972 12.4529 1.4 30.9678 -82.0509 133.902
2348 24.4972 12.4529 1.4 31.4642 -82.703 81.4794
2349 24.9972 12.4529 1.4 31.9607 -82.7436 -12.6657
2350 25.4972 12.4529 1.4 32.4573 -86.4756 22.2766
2351 25.9972 12.4529 1.4 32.954 -86.641 66.6145
2352 26.4972 12.4529 1.4 33.4508 -87.4686 41.2944
2353 26.9972 12.4529 1.4 33.9477 -88.2476 14.9114
2354 27.4972 12.4529 1.4 34.4447 -89.0441 -12.1137
2355 27.9972 12.4529 1.4 34.9418 -76.4334 -105.025
2356 28.4972 12.4529 1.4 35.4389 -82.098 -58.4634
2357 28.9972 12.4529 1.4 35.9362 -250 0
2358 29.4972 12.4529 1.4 36.4335 -250 0
2359 29.9972 12.4529 1.4 36.9309 -250 0
2360 30.4972 12.4529 1.4 37.4283 -250 0
2361 -28.0028 12.9529 1.4 21.5061 -66.4015 162.728
2362 -27.5028 12.9529 1.4 21.012 -68.5718 134.974
2363 -27.0028 12.9529 1.4 20.5181 -72.425 -146.222
2364 -26.5028 12.9529 1.4 20.0246 -88.4376 135.436
2365 -26.0028 12.9529 1.4 19.5313 -96.5254 134.12
2366 -25.5028 12.9529 1.4 19.0385 -96.1514 -90.6916
2367 -25.0028 12.9529 1.4 18.546 -100.9 -96.4253
2368 -24.5028 12.9529 1.4 18.0539 -105.597 143.937
2369 -24.0028 12.9529 1.4 17.5623 -71.7712 -139.177
2370 -23.5028 12.9529 1.4 17.0712 -69.7572 10.3571
2371 -23.0028 12.9529 1.4 16.5806 -65.2619 -56.7044
2372 -22.5028 12.9529 1.4 16.0906 -65.7763 -40.486
2373 -22.0028 12.9529 1.4 15.6012 -71.6544 29.3868
2374 -21.5028 12.9529 1.4 15.1125 -76.0862 16.1488
2375 -21.0028 12.9529 1.4 14.6245 -79.6417 116.265
2376 -20.5028 12.9529 1.4 14.1374 -71.8652 113.768
2377 -20.0028 12.9529 1.4 13.6513 -67.9179 88.338
2378 -19.5028 12.9529 1.4 13.1662 -62.4721 104.143
2379 -19.0028 12.9529 1.4 12.6822 -59.7852 110.813
2380 -18.5028 12.9529 1.4 12.1995 -66.6684 126.214
2381 -18.0028 12.9529 1.4 11.7183 -57.7757 165.901
2382 -17.5028 12.9529 1.4 11.2387 -62.349 -140.591
2383 -17.0028 12.9529 1.4 10.761 -64.9884 -142.332
2384 -16.5028 12.9529 1.4 10.2854 -64.8101 -119.974
2385 -16.0028 12.9529 1.4 9.81226 -64.6519 -98.4302
2386 -15.5028 12.9529 1.4 9.34189 -64.5083 -77.8023
2387 -15.0028 12.9529 1.4 8.87475 -66.1737 -51.9458
2388 -14.5028 12.9529 1.4 8.4114 -68.5222 45.4478
2389 -14.0028 12.9529 1.4 7.95248 -71.6627 19.1977
2390 -13.5028 12.9529 1.4 7.49882 -66.3325 -81.1146
2391 -13.0028 12.9529 1.4 7.05143 -58.7012 76.3968
2392 -12.5028 12.9529 1.4 6.61158 -54.5992 21.8586
2393 -12.0028 12.9529 1.4 6.18089 -59.3752 33.8745
2394 -11.5028 12.9529 1.4 5.7614 -57.5137 21.2762
2395 -11.0028 12.9529 1.4 5.35576 -62.4667 -25.0184
2396 -10.5028 12.9529 1.4 4.96734 -75.8648 36.186
2397 -10.0028 12.9529 1.4 4.60053 -79.4314 36.4937
2398 -9.50282 12.9529 1.4 4.26089 -81.5918 -53.433
2399 -9.00282 12.9529 1.4 3.95545 -81.9223 -77.006
2400 -8.50282 12.9529 1.4 3.69268 -63.1937 132.995
2401 -8.00282 12.9529 1.4 3.48228 -60.6995 -39.8963
2402 -7.50282 12.9529 1.4 3.33416 -60.8495 -61.5974
2403 -7.00282 12.9529 1.4 3.25684 -46.7077 91.0299
2404 -6.50282 12.9529 1.4 3.25536 -41.2721 82.4279
2405 -6.00282 12.9529 1.4 3.32982 -41.9824 -143.651
2406 -5.50282 12.9529 1.4 3.47535 -40.9014 155.68
2407 -5.00282 12.9529 1.4 3.68353 -43.1969 -58.628
2408 -4.50282 12.9529 1.4 3.94446 -52.9164 -138.22
2409 -4.00282 12.9529 1.4 4.24843 -45.7534 47.815
2410 -3.50282 12.9529 1.4 4.58688 -46.8996 96.9362
2411 -3.00282 12.9529 1.4 4.95276 -47.244 131.165
2412 -2.50282 12.9529 1.4 5.34043 -47.9382 117.934
2413 -2.00282 12.9529 1.4 5.74548 -51.4623 -61.5768
2414 -1.50282 12.9529 1.4 6.16449 -47.8534 155.057
2415 -1.00282 12.9529 1.4 6.59479 -54.0204 -78.6354
2416 -0.50282 12.9529 1.4 7.03432 -59.5898 100.813
2417 -0.00282 12.9529 1.4 7.48144 -54.6637 135.956
2418 0.49718 12.9529 1.4 7.93488 -56.7805 145.754
2419 0.99718 12.9529 1.4 8.39361 -60.2039 163.677
2420 1.49718 12.9529 1.4 8.85681 -60.8054 179.67
2421 1.99718 12.9529 1.4 9.32381 -56.4191 -117.517
2422 2.49718 12.9529 1.4 9.79407 -56.845 -150.425
2423 2.99718 12.9529 1.4 10.2671 -57.326 134.699
2424 3.49718 12.9529 1.4 10.7426 -61.1065 27.2735
2425 3.99718 12.9529 1.4 11.2203 -71.4955 -146.003
2426 4.49718 12.9529 1.4 11.6998 -66.3178 104.598
2427 4.99718 12.9529 1.4 12.181 -67.5299 134.778
2428 5.49718 12.9529 1.4 12.6636 -68.7738 109.397
2429 5.99718 12.9529 1.4 13.1475 -71.268 90.9979
2430 6.49718 12.9529 1.4 13.6326 -71.7503 152.106
2431 6.99718 12.9529 1.4 14.1187 -55.0936 105.517
2432 7.49718 12.9529 1.4 14.6057 -76.5475 56.7393
2433 7.99718 12.9529 1.4 15.0936 -66.2045 2.39263
2434 8.49718 12.9529 1.4 15.5823 -63.3995 19.8541
2435 8.99718 12.9529 1.4 16.0717 -71.9897 42.9616
2436 9.49718 12.9529 1.4 16.5617 -69.577 -50.4078
2437 9.99718 12.9529 1.4 17.0522 -69.6971 -77.8221
2438 10.4972 12.9529 1.4 17.5434 -69.8225 -105.766
2439 10.9972 12.9529 1.4 18.035 -77.5523 -113.565
2440 11.4972 12.9529 1.4 18.527 -70.5871 179.117
2441 11.9972 12.9529 1.4 19.0195 -58.2577 -91.1273
2442 12.4972 12.9529 1.4 19.5123 -69.0217 75.2097
2443 12.9972 12.9529 1.4 20.0055 -63.313 135.166
2444 13.4972 12.9529 1.4 20.4991 -78.8598 -118.028
2445 13.9972 12.9529 1.4 20.9929 -79.6745 -88.4292
2446 14.4972 12.9529 1.4 21.487 -81.1767 81.9972
2447 14.9972 12.9529 1.4 21.9814 -81.1782 94.6829
2448 15.4972 12.9529 1.4 22.4761 -75.7947 110.425
2449 15.9972 12.9529 1.4 22.9709 -80.6413 -0.388394
2450 16.4972 12.9529 1.4 23.466 -68.0578 -108.716
2451 16.9972 12.9529 1.4 23.9613 -65.3488 -87.048
2452 17.4972 12.9529 1.4 24.4568 -69.5504 -77.6132
2453 17.9972 12.9529 1.4 24.9525 -68.622 -68.5714
2454 18.4972 12.9529 1.4 25.4483 -68.5706 -73.8024
2455 18.9972 12.9529 1.4 25.9443 -68.4911 -79.8142
2456 19.4972 12.9529 1.4 26.4404 -67.3362 -95.1078
2457 19.9972 12.9529 1.4 26.9367 -67.3878 -103.152
2458 20.4972 12.9529 1.4 27.4331 -67.4367 -111.712
2459 20.9972 12.9529 1.4 27.9297 -71.2955 -142.246
2460 21.4972 12.9529 1.4 28.4264 -74.6216 153.194
2461 21.9972 12.9529 1.4 28.9231 -74.151 56.5067
2462 22.4972 12.9529 1.4 29.42 -71.7226 95.2798
2463 22.9972 12.9529 1.4 29.917 -73.0415 60.4023
2464 23.4972 12.9529 1.4 30.4141 -78.5221 68.346
2465 23.9972 12.9529 1.4 30.9113 -250 0
2466 24.4972 12.9529 1.4 31.4086 -250 0
2467 24.9972 12.9529 1.4 31.906 -89.2554 -17.1647
2468 25.4972 12.9529 1.4 32.4034 -85.8432 62.4527
2469 25.9972 12.9529 1.4 32.9009 -82.426 -13.6051
2470 26.4972 12.9529 1.4 33.3985 -72.8661 69.1507
2471 26.9972 12.9529 1.4 33.8962 -72.2573 -70.627
2472 27.4972 12.9529 1.4 34.3939 -76.1609 -94.9386
2473 27.9972 12.9529 1.4 34.8917 -85.6562 20.3314
2474 28.4972 12.9529 1.4 35.3896 -81.9329 54.4958
2475 28.9972 12.9529 1.4 35.8875 -250 0
2476 29.4972 12.9529 1.4 36.3855 -250 0
2477 29.9972 12.9529 1.4 36.8835 -250 0
2478 30.4972 12.9529 1.4 37.3816 -250 0
2479 -28.0028 13.4529 1.4 21.4363 -73.6294 -155.546
2480 -27.5028 13.4529 1.4 20.9405 -95.66 71.6515
2481 -27.0028 13.4529 1.4 20.445 -97.5445 10.1665
2482 -26.5028 13.4529 1.4 19.9496 -99.7605 -65.7562
2483 -26.0028 13.4529 1.4 19.4545 -93.1278 156.307
2484 -25.5028 13.4529 1.4 18.9596 -94.0553 129.893
2485 -25.0028 13.4529 1.4 18.465 -94.2483 42.9268
2486 -24.5028 13.4529 1.4 17.9708 -94.1532 77.9199
2487 -24.0028 13.4529 1.4 17.4768 -65.8565 -38.2869
2488 -23.5028 13.4529 1.4 16.9832 -72.4388 -108.142
2489 -23.0028 13.4529 1.4 16.49 -81.7405 17.95
2490 -22.5028 13.4529 1.4 15.9972 -73.6352 71.3043
2491 -22.0028 13.4529 1.4 15.5048 -76.5789 -161.899
2492 -21.5028 13.4529 1.4 15.013 -77.2352 -162.304
2493 -21.0028 13.4529 1.4 14.5217 -73.0038 153.692
2494 -20.5028 13.4529 1.4 14.0311 -79.6959 112.199
2495 -20.0028 13.4529 1.4 13.5411 -65.5662 50.1371
2496 -19.5028 13.4529 1.4 13.0519 -62.5138 -119.866
2497 -19.0028 13.4529 1.4 12.5635 -65.2103 113.985
2498 -18.5028 13.4529 1.4 12.0761 -66.7734 20.7366
2499 -18.0028 13.4529 1.4 11.5898 -62.4168 37.6924
2500 -17.5028 13.4529 1.4 11.1046 -72.5418 28.3317
2501 -17.0028 13.4529 1.4 10.6209 -76.1977 -124.271
2502 -16.5028 13.4529 1.4 10.1387 -89.8234 -58.9911
2503 -16.0028 13.4529 1.4 9.65837 -74.745 96.7215
2504 -15.5028 13.4529 1.4 9.18011 -66.6546 79.8892
2505 -15.0028 13.4529 1.4 8.7043 -62.093 165.448
2506 -14.5028 13.4529 1.4 8.23135 -62.5332 -178.877
2507 -14.0028 13.4529 1.4 7.7618 -62.7724 -175.701
2508 -13.5028 13.4529 1.4 7.29629 -62.0723 -113.252
2509 -13.0028 13.4529 1.4 6.83566 -72.2705 168.034
2510 -12.5028 13.4529 1.4 6.38095 -66.8026 -35.7581
2511 -12.0028 13.4529 1.4 5.93354 -66.3069 -151.794
2512 -11.5028 13.4529 1.4 5.49521 -67.6409 51.6812
2513 -11.0028 13.4529 1.4 5.0683 -59.6265 16.2765
2514 -10.5028 13.4529 1.4 4.65596 -58.7656 11.009
2515 -10.0028 13.4529 1.4 4.26244 -57.1999 -4.22902
2516 -9.50282 13.4529 1.4 3.89342 -60.5846 -39.3156
2517 -9.00282 13.4529 1.4 3.55655 -76.0897 70.2147
2518 -8.50282 13.4529 1.4 3.26182 -70.0349 46.2077
2519 -8.00282 13.4529 1.4 3.02156 -61.7047 -102.302
2520 -7.50282 13.4529 1.4 2.84959 -81.4652 -117.922
2521 -7.00282 13.4529 1.4 2.75872 -45.3517 135.656
2522 -6.50282 13.4529 1.4 2.75697 -47.7782 71.101
2523 -6.00282 13.4529 1.4 2.84451 -59.0746 -14.6238
2524 -5.50282 13.4529 1.4 3.01357 -48.6313 130.396
2525 -5.00282 13.4529 1.4 3.25145 -50.6218 75.2581
2526 -4.50282 13.4529 1.4 3.54433 -46.2667 -34.2445
2527 -4.00282 13.4529 1.4 3.87978 -47.1754 61.4572
2528 -3.50282 13.4529 1.4 4.24771 -51.0443 64.4747
2529 -3.00282 13.4529 1.4 4.64041 -53.6096 1.12611
2530 -2.50282 13.4529 1.4 5.0521 -47.7113 -171.53
2531 -2.00282 13.4529 1.4 5.47851 -51.4746 18.1035
2532 -1.50282 13.4529 1.4 5.91646 -53.647 115.166
2533 -1.00282 13.4529 1.4 6.36355 -56.2151 135.24
2534 -0.50282 13.4529 1.4 6.818 -60.3172 165.368
2535 -0.00282 13.4529 1.4 7.27843 -63.9943 -177.227
2536 0.49718 13.4529 1.4 7.74376 -59.8173 -168.03
2537 0.99718 13.4529 1.4 8.21318 -70.0765 -168.464
2538 1.49718 13.4529 1.4 8.686 -62.4536 64.3279
2539 1.99718 13.4529 1.4 9.16171 -72.8143 71.6229
2540 2.49718 13.4529 1.4 9.63988 -59.2563 12.4427
2541 2.99718 13.4529 1.4 10.1202 -62.6605 -69.06
2542 3.49718 13.4529 1.4 10.6023 -59.8055 -158.98
2543 3.99718 13.4529 1.4 11.086 -56.7874 114.878
2544 4.49718 13.4529 1.4 11.571 -57.1039 7.89446
2545 4.99718 13.4529 1.4 12.0573 -70.0966 24.2623
2546 5.49718 13.4529 1.4 12.5447 -70.1586 -2.50622
2547 5.99718 13.4529 1.4 13.033 -64.3476 83.3376
2548 6.49718 13.4529 1.4 13.5222 -63.5612 -1.06623
2549 6.99718 13.4529 1.4 14.0122 -71.8772 -97.93
2550 7.49718 13.4529 1.4 14.5028 -74.41 -71.1245
2551 7.99718 13.4529 1.4 14.994 -69.6373 56.7023
2552 8.49718 13.4529 1.4 15.4859 -81.1673 141.608
2553 8.99718 13.4529 1.4 15.9782 -80.1955 -67.569
2554 9.49718 13.4529 1.4 16.471 -66.0251 -24.0173
2555 9.99718 13.4529 1.4 16.9642 -68.1324 45.8944
2556 10.4972 13.4529 1.4 17.4578 -83.526 -75.416
2557 10.9972 13.4529 1.4 17.9517 -59.6331 -34.8785
2558 11.4972 13.4529 1.4 18.446 -67.1865 81.5722
2559 11.9972 13.4529 1.4 18.9405 -75.7524 173.849
2560 12.4972 13.4529 1.4 19.4354 -66.5068 -11.9832
2561 12.9972 13.4529 1.4 19.9305 -71.3238 -50.0217
2562 13.4972 13.4529 1.4 20.4258 -78.0222 172.633
2563 13.9972 13.4529 1.4 20.9214 -73.4806 -158.235
2564 14.4972 13.4529 1.4 21.4172 -71.1337 178.917
2565 14.9972 13.4529 1.4 21.9132 -79.4334 -110.1
2566 15.4972 13.4529 1.4 22.4093 -72.4728 -159.614
2567 15.9972 13.4529 1.4 22.9056 -74.596 -167.997
2568 16.4972 13.4529 1.4 23.4021 -81.3025 135.095
2569 16.9972 13.4529 1.4 23.8987 -82.4139 3.74187
2570 17.4972 13.4529 1.4 24.3955 -65.708 71.5471
2571 17.9972 13.4529 1.4 24.8923 -69.5603 -168.53
2572 18.4972 13.4529 1.4 25.3893 -73.9205 -70.997
2573 18.9972 13.4529 1.4 25.8865 -69.9792 -51.3918
2574 19.4972 13.4529 1.4 26.3837 -67.5508 -36.1734
2575 19.9972 13.4529 1.4 26.881 -69.3409 -39.9634
2576 20.4972 13.4529 1.4 27.3785 -66.4143 -47.4349
2577 20.9972 13.4529 1.4 27.876 -62.8992 -15.6864
2578 21.4972 13.4529 1.4 28.3736 -65.3179 -31.9348
2579 21.9972 13.4529 1.4 28.8713 -250 0
2580 22.4972 13.4529 1.4 29.3691 -82.0629 -68.4611
2581 22.9972 13.4529 1.4 29.8669 -78.0002 139.542
2582 23.4972 13.4529 1.4 30.3648 -74.3331 165.519
2583 23.9972 13.4529 1.4 30.8628 -74.2869 -96.7285
2584 24.4972 13.4529 1.4 31.3609 -69.8063 -99.4818
2585 24.9972 13.4529 1.4 31.859 -72.8349 147.917
2586 25.4972 13.4529 1.4 32.3571 -86.9119 90.5531
2587 25.9972 13.4529 1.4 32.8554 -74.2984 22.0155
2588 26.4972 13.4529 1.4 33.3536 -92.3516 175.363
2589 26.9972 13.4529 1.4 33.852 -82.7849 -23.0839
2590 27.4972 13.4529 1.4 34.3503 -89.6982 11.5715
2591 27.9972 13.4529 1.4 34.8488 -88.9679 10.3198
2592 28.4972 13.4529 1.4 35.3472 -88.2158 7.23674
2593 28.9972 13.4529 1.4 35.8457 -250 0
2594 29.4972 13.4529 1.4 36.3443 -250 0
2595 29.9972 13.4529 1.4 36.8429 -250 0
2596 30.4972 13.4529 1.4 37.3415 -250 0
2597 -28.0028 13.9529 1.4 21.378 -99.3935 -44.5501
2598 -27.5028 13.9529 1.4 20.8808 -101.311 -126.483
2599 -27.0028 13.9529 1.4 20.3838 -103.679 135.076
2600 -26.5028 13.9529 1.4 19.8869 -106.863 16.3245
2601 -26.0028 13.9529 1.4 19.3902 -250 0
2602 -25.5028 13.9529 1.4 18.8937 -250 0
2603 -25.0028 13.9529 1.4 18.3973 -250 0
2604 -24.5028 13.9529 1.4 17.9012 -250 0
2605 -24.0028 13.9529 1.4 17.4052 -75.5021 18.7206
2606 -23.5028 13.9529 1.4 16.9095 -79.6546 -22.8438
2607 -23.0028 13.9529 1.4 16.4141 -87.5861 -104.169
2608 -22.5028 13.9529 1.4 15.9189 -72.7685 165.976
2609 -22.0028 13.9529 1.4 15.4241 -73.3681 112.643
2610 -21.5028 13.9529 1.4 14.9296 -70.213 104.635
2611 -21.0028 13.9529 1.4 14.4355 -68.4513 -5.96472
2612 -20.5028 13.9529 1.4 13.9418 -64.0897 -159.012
2613 -20.0028 13.9529 1.4 13.4486 -66.339 68.0114
2614 -19.5028 13.9529 1.4 12.9559 -72.1127 1.75635
2615 -19.0028 13.9529 1.4 12.4638 -69.1477 6.60606
2616 -18.5028 13.9529 1.4 11.9723 -250 0
2617 -18.0028 13.9529 1.4 11.4816 -250 0
2618 -17.5028 13.9529 1.4 10.9917 -71.5782 -24.3126
2619 -17.0028 13.9529 1.4 10.5027 -73.1955 -29.3339
2620 -16.5028 13.9529 1.4 10.0149 -71.8357 -83.6279
2621 -16.0028 13.9529 1.4 9.52825 -73.8521 -172.143
2622 -15.5028 13.9529 1.4 9.04312 -69.3053 -3.33351
2623 -15.0028 13.9529 1.4 8.55969 -75.9633 -24.5725
2624 -14.5028 13.9529 1.4 8.07828 -72.5518 -113.042
2625 -14.0028 13.9529 1.4 7.59928 -67.4696 24.1183
2626 -13.5028 13.9529 1.4 7.12316 -72.8059 -178.319
2627 -13.0028 13.9529 1.4 6.65054 -77.9787 -17.4339
2628 -12.5028 13.9529 1.4 6.18224 -88.2357 -70.9932
2629 -12.0028 13.9529 1.4 5.71931 -84.6181 175.763
2630 -11.5028 13.9529 1.4 5.26316 -64.0428 24.4704
2631 -11.0028 13.9529 1.4 4.81572 -62.1832 -91.5342
2632 -10.5028 13.9529 1.4 4.37967 -82.4403 -92.5827
2633 -10.0028 13.9529 1.4 3.95877 -250 0
2634 -9.50282 13.9529 1.4 3.55841 -65.85 9.50867
2635 -9.00282 13.9529 1.4 3.18632 -56.8767 -12.8481
2636 -8.50282 13.9529 1.4 2.85359 -57.1302 -18.5061
2637 -8.00282 13.9529 1.4 2.57552 -60.4551 -82.8182
2638 -7.50282 13.9529 1.4 2.37143 -61.334 -99.9589
2639 -7.00282 13.9529 1.4 2.26142 -38.09 130.124
2640 -6.50282 13.9529 1.4 2.25929 -40.7671 -164.644
2641 -6.00282 13.9529 1.4 2.36532 -40.0033 -173.894
2642 -5.50282 13.9529 1.4 2.56615 -44.1388 -44.5027
2643 -5.00282 13.9529 1.4 2.84174 -45.8632 -145.014
2644 -4.50282 13.9529 1.4 3.17267 -46.3938 -26.3454
2645 -4.00282 13.9529 1.4 3.54347 -45.8999 -12.1437
2646 -3.50282 13.9529 1.4 3.94291 -45.0065 -126.73
2647 -3.00282 13.9529 1.4 4.36313 -42.9977 71.3425
2648 -2.50282 13.9529 1.4 4.79867 -51.0793 112.749
2649 -2.00282 13.9529 1.4 5.24572 -53.882 113.417
2650 -1.50282 13.9529 1.4 5.70158 -57.7289 69.2522
2651 -1.00282 13.9529 1.4 6.16428 -71.0932 -13.6598
2652 -0.50282 13.9529 1.4 6.6324 -66.5975 -44.5329
2653 -0.00282 13.9529 1.4 7.10486 -65.2679 7.0017
2654 0.49718 13.9529 1.4 7.58086 -85.3556 -3.87628
2655 0.99718 13.9529 1.4 8.05976 -68.3562 -46.9458
2656 1.49718 13.9529 1.4 8.54109 -79.6885 -82.4564
2657 1.99718 13.9529 1.4 9.02444 -72.975 27.9583
2658 2.49718 13.9529 1.4 9.50951 -73.5661 167.62
2659 2.99718 13.9529 1.4 9.99606 -59.8925 88.6318
2660 3.49718 13.9529 1.4 10.4839 -60.7193 16.8844
2661 3.99718 13.9529 1.4 10.9728 -61.3927 -56.1456
2662 4.49718 13.9529 1.4 11.4626 -60.09 -142.767
2663 4.99718 13.9529 1.4 11.9534 -61.5134 100.814
2664 5.49718 13.9529 1.4 12.4448 -59.2517 13.3728
2665 5.99718 13.9529 1.4 12.9369 -75.7899 -14.0674
2666 6.49718 13.9529 1.4 13.4296 -87.2699 -77.9037
2667 6.99718 13.9529 1.4 13.9228 -85.5268 -99.9899
2668 7.49718 13.9529 1.4 14.4165 -86.2515 -136.055
2669 7.99718 13.9529 1.4 14.9106 -66.0807 -82.7707
2670 8.49718 13.9529 1.4 15.405 -66.8624 -90.2629
2671 8.99718 13.9529 1.4 15.8999 -66.14 -9.64241
2672 9.49718 13.9529 1.4 16.395 -68.8492 72.8403
2673 9.99718 13.9529 1.4 16.8904 -60.7116 12.0248
2674 10.4972 13.9529 1.4 17.3861 -73.0041 132.836
2675 10.9972 13.9529 1.4 17.882 -68.3358 -51.7068
2676 11.4972 13.9529 1.4 18.3782 -65.2145 49.867
2677 11.9972 13.9529 1.4 18.8745 -250 0
2678 12.4972 13.9529 1.4 19.3711 -250 0
2679 12.9972 13.9529 1.4 19.8678 -70.3584 69.6947
2680 13.4972 13.9529 1.4 20.3646 -67.6022 -6.87346
2681 13.9972 13.9529 1.4 20.8617 -93.0312 37.4998
2682 14.4972 13.9529 1.4 21.3588 -81.8665 -1.6788
2683 14.9972 13.9529 1.4 21.8561 -72.1348 170.506
2684 15.4972 13.9529 1.4 22.3535 -75.0928 -77.245
2685 15.9972 13.9529 1.4 22.8511 -75.4096 -164.803
2686 16.4972 13.9529 1.4 23.3487 -79.9721 -102.205
2687 16.9972 13.9529 1.4 23.8464 -250 0
2688 17.4972 13.9529 1.4 24.3442 -81.4257 158.139
2689 17.9972 13.9529 1.4 24.8421 -77.8931 -175.163
2690 18.4972 13.9529 1.4 25.3401 -68.0554 -3.53418
2691 18.9972 13.9529 1.4 25.8382 -81.6405 -105.265
2692 19.4972 13.9529 1.4 26.3363 -80.8072 24.1072
2693 19.9972 13.9529 1.4 26.8346 -95.9397 24.1372
2694 20.4972 13.9529 1.4 27.3328 -70.8671 -13.4342
2695 20.9972 13.9529 1.4 27.8312 -68.2254 -17.9509
2696 21.4972 13.9529 1.4 28.3296 -66.6803 1.49194
2697 21.9972 13.9529 1.4 28.828 -250 0
2698 22.4972 13.9529 1.4 29.3265 -250 0
2699 22.9972 13.9529 1.4 29.8251 -250 0
2700 23.4972 13.9529 1.4 30.3237 -82.7759 -66.5402
2701 23.9972 13.9529 1.4 30.8223 -250 0
2702 24.4972 13.9529 1.4 31.321 -76.8154 97.951
2703 24.9972 13.9529 1.4 31.8198 -74.039 85.7841
2704 25.4972 13.9529 1.4 32.3185 -85.8225 146.113
2705 25.9972 13.9529 1.4 32.8173 -86.0356 -73.6412
2706 26.4972 13.9529 1.4 33.3162 -250 0
2707 26.9972 13.9529 1.4 33.8151 -250 0
2708 27.4972 13.9529 1.4 34.314 -250 0
2709 27.9972 13.9529 1.4 34.8129 -92.8312 23.0614
2710 28.4972 13.9529 1.4 35.3119 -92.1357 31.5674
2711 28.9972 13.9529 1.4 35.8109 -250 0
2712 29.4972 13.9529 1.4 36.3099 -250 0
2713 29.9972 13.9529 1.4 36.809 -250 0
2714 30.4972 13.9529 1.4 37.3081 -250 0
2715 -28.0028 14.4529 1.4 21.3313 -104.737 71.2111
2716 -27.5028 14.4529 1.4 20.833 -107.472 -47.4802
2717 -27.0028 14.4529 1.4 20.3348 -250 0
2718 -26.5028 14.4529 1.4 19.8367 -250 0
2719 -26.0028 14.4529 1.4 19.3387 -250 0
2720 -25.5028 14.4529 1.4 18.8408 -250 0
2721 -25.0028 14.4529 1.4 18.343 -250 0
2722 -24.5028 14.4529 1.4 17.8453 -250 0
2723 -24.0028 14.4529 1.4 17.3478 -87.5545 124.053
2724 -23.5028 14.4529 1.4 16.8504 -85.0664 37.9067
2725 -23.0028 14.4529 1.4 16.3532 -73.7987 69.3554
2726 -22.5028 14.4529 1.4 15.8561 -74.4649 9.05278
2727 -22.0028 14.4529 1.4 15.3593 -70.0429 -161.534
2728 -21.5028 14.4529 1.4 14.8626 -65.091 135.629
2729 -21.0028 14.4529 1.4 14.3662 -60.8364 16.6843
2730 -20.5028 14.4529 1.4 13.87 -71.8802 -35.439
2731 -20.0028 14.4529 1.4 13.3742 -71.567 -71.0418
2732 -19.5028 14.4529 1.4 12.8786 -69.6276 92.2489
2733 -19.0028 14.4529 1.4 12.3834 -250 0
2734 -18.5028 14.4529 1.4 11.8886 -250 0
2735 -18.0028 14.4529 1.4 11.3943 -250 0
2736 -17.5028 14.4529 1.4 10.9005 -72.6647 -136.863
2737 -17.0028 14.4529 1.4 10.4072 -83.2504 -162.776
2738 -16.5028 14.4529 1.4 9.91467 -66.4294 -67.2709
2739 -16.0028 14.4529 1.4 9.4229 -77.8232 -30.9848
2740 -15.5028 14.4529 1.4 8.93205 -71.476 -169.319
2741 -15.0028 14.4529 1.4 8.44227 -80.9453 -48.8325
2742 -14.5028 14.4529 1.4 7.95375 -72.5764 105.45
2743 -14.0028 14.4529 1.4 7.46676 -69.2755 -63.5772
2744 -13.5028 14.4529 1.4 6.98161 -68.9457 -66.747
2745 -13.0028 14.4529 1.4 6.49871 -75.942 141.505
2746 -12.5028 14.4529 1.4 6.01861 -77.0423 -143.001
2747 -12.0028 14.4529 1.4 5.54202 -76.3922 -88.4392
2748 -11.5028 14.4529 1.4 5.06995 -84.4938 104.076
2749 -11.0028 14.4529 1.4 4.60377 -82.7496 -150.88
2750 -10.5028 14.4529 1.4 4.14549 -62.1639 79.8299
2751 -10.0028 14.4529 1.4 3.69803 -59.1134 -32.7755
2752 -9.50282 14.4529 1.4 3.26585 -85.0986 -44.4873
2753 -9.00282 14.4529 1.4 2.8559 -93.0523 -90.2861
2754 -8.50282 14.4529 1.4 2.47921 -81.8032 -14.787
2755 -8.00282 14.4529 1.4 2.15334 -72.0888 170.279
2756 -7.50282 14.4529 1.4 1.90452 -55.528 -137.456
2757 -7.00282 14.4529 1.4 1.76566 -42.4301 127.247
2758 -6.50282 14.4529 1.4 1.76293 -41.8194 148.138
2759 -6.00282 14.4529 1.4 1.89692 -38.7476 161.611
2760 -5.50282 14.4529 1.4 2.14211 -43.9246 141.747
2761 -5.00282 14.4529 1.4 2.46556 -45.2677 -108.268
2762 -4.50282 14.4529 1.4 2.84066 -45.0689 -91.5026
2763 -4.00282 14.4529 1.4 3.24957 -42.6017 106.139
2764 -3.50282 14.4529 1.4 3.68104 -55.2305 -171.038
2765 -3.00282 14.4529 1.4 4.12801 -62.5387 -158.459
2766 -2.50282 14.4529 1.4 4.58593 -68.5167 178.537
2767 -2.00282 14.4529 1.4 5.05185 -55.2016 -109.697
2768 -1.50282 14.4529 1.4 5.52372 -63.3454 -110.64
2769 -1.00282 14.4529 1.4 6.00016 -65.7106 -172.725
2770 -0.50282 14.4529 1.4 6.48014 -70.1299 79.8233
2771 -0.00282 14.4529 1.4 6.96294 -80.4429 1.81256
2772 0.49718 14.4529 1.4 7.44802 -72.7231 -121.342
2773 0.99718 14.4529 1.4 7.93494 -81.5038 -173.938
2774 1.49718 14.4529 1.4 8.4234 -73.6215 21.3068
2775 1.99718 14.4529 1.4 8.91314 -99.1493 -58.871
2776 2.49718 14.4529 1.4 9.40396 -75.8851 -139.711
2777 2.99718 14.4529 1.4 9.89569 -74.3463 -106.682
2778 3.49718 14.4529 1.4 10.3882 -61.2071 167.337
2779 3.99718 14.4529 1.4 10.8814 -61.0701 106.392
2780 4.49718 14.4529 1.4 11.3752 -62.4091 24.8816
2781 4.99718 14.4529 1.4 11.8695 -56.9135 -61.3348
2782 5.49718 14.4529 1.4 12.3643 -63.0971 -162.287
2783 5.99718 14.4529 1.4 12.8595 -69.3149 149.67
2784 6.49718 14.4529 1.4 13.355 -68.6997 -38.6102
2785 6.99718 14.4529 1.4 13.8509 -250 0
2786 7.49718 14.4529 1.4 14.3471 -250 0
2787 7.99718 14.4529 1.4 14.8435 -250 0
2788 8.49718 14.4529 1.4 15.3401 -68.8889 21.9927
2789 8.99718 14.4529 1.4 15.837 -79.7482 -53.2916
2790 9.49718 14.4529 1.4 16.334 -58.397 -149.647
2791 9.99718 14.4529 1.4 16.8312 -59.8535 -68.839
2792 10.4972 14.4529 1.4 17.3286 -66.7408 30.6733
2793 10.9972 14.4529 1.4 17.8261 -70.9488 -171.857
2794 11.4972 14.4529 1.4 18.3238 -68.662 -95.3976
2795 11.9972 14.4529 1.4 18.8216 -250 0
2796 12.4972 14.4529 1.4 19.3195 -71.3593 160.803
2797 12.9972 14.4529 1.4 19.8175 -72.3993 -154.952
2798 13.4972 14.4529 1.4 20.3156 -80.1714 -101.614
2799 13.9972 14.4529 1.4 20.8138 -71.4899 118.539
2800 14.4972 14.4529 1.4 21.312 -68.4634 -21.586
2801 14.9972 14.4529 1.4 21.8104 -67.5096 -72.943
2802 15.4972 14.4529 1.4 22.3088 -73.2313 -2.542
2803 15.9972 14.4529 1.4 22.8073 -72.7473 51.9316
2804 16.4972 14.4529 1.4 23.3059 -72.468 103.071
2805 16.9972 14.4529 1.4 23.8045 -70.4574 57.8226
2806 17.4972 14.4529 1.4 24.3032 -72.5144 -59.3903
2807 17.9972 14.4529 1.4 24.8019 -80.3039 16.4533
2808 18.4972 14.4529 1.4 25.3007 -75.1949 43.2077
2809 18.9972 14.4529 1.4 25.7995 -65.5535 132.079
2810 19.4972 14.4529 1.4 26.2984 -61.7644 -41.6525
2811 19.9972 14.4529 1.4 26.7973 -250 0
2812 20.4972 14.4529 1.4 27.2963 -250 0
2813 20.9972 14.4529 1.4 27.7953 -250 0
2814 21.4972 14.4529 1.4 28.2943 -250 0
2815 21.9972 14.4529 1.4 28.7934 -250 0
2816 22.4972 14.4529 1.4 29.2925 -250 0
2817 22.9972 14.4529 1.4 29.7916 -250 0
2818 23.4972 14.4529 1.4 30.2907 -250 0
2819 23.9972 14.4529 1.4 30.7899 -250 0
2820 24.4972 14.4529 1.4 31.2891 -83.123 -121.107
2821 24.9972 14.4529 1.4 31.7884 -86.0639 -106.623
2822 25.4972 14.4529 1.4 32.2876 -86.2832 31.4698
2823 25.9972 14.4529 1.4 32.7869 -250 0
2824 26.4972 14.4529 1.4 33.2862 -250 0
2825 26.9972 14.4529 1.4 33.7855 -250 0
2826 27.4972 14.4529 1.4 34.2849 -250 0
2827 27.9972 14.4529 1.4 34.7842 -250 0
2828 28.4972 14.4529 1.4 35.2836 -250 0
2829 28.9972 14.4529 1.4 35.783 -250 0
2830 29.4972 14.4529 1.4 36.2824 -250 0
2831 29.9972 14.4529 1.4 36.7818 -250 0
2832 30.4972 14.4529 1.4 37.2813 -250 0
2833 -28.0028 14.9529 1.4 21.2962 -250 0
2834 -27.5028 14.9529 1.4 20.797 -250 0
2835 -27.0028 14.9529 1.4 20.2979 -250 0
2836 -26.5028 14.9529 1.4 19.7989 -250 0
2837 -26.0028 14.9529 1.4 19.2999 -250 0
2838 -25.5028 14.9529 1.4 18.801 -250 0
2839 -25.0028 14.9529 1.4 18.3021 -250 0
2840 -24.5028 14.9529 1.4 17.8033 -80.8355 42.7514
2841 -24.0028 14.9529 1.4 17.3046 -83.7823 -66.7332
2842 -23.5028 14.9529 1.4 16.8059 -80.7391 -141.838
2843 -23.0028 14.9529 1.4 16.3073 -70.9494 146.208
2844 -22.5028 14.9529 1.4 15.8089 -67.1364 74.8286
2845 -22.0028 14.9529 1.4 15.3105 -71.4952 -84.8522
2846 -21.5028 14.9529 1.4 14.8122 -250 0
2847 -21.0028 14.9529 1.4 14.314 -250 0
2848 -20.5028 14.9529 1.4 13.816 -68.0656 67.2831
2849 -20.0028 14.9529 1.4 13.3181 -67.1235 63.4794
2850 -19.5028 14.9529 1.4 12.8204 -66.7835 95.4234
2851 -19.0028 14.9529 1.4 12.3228 -66.4361 126.932
2852 -18.5028 14.9529 1.4 11.8255 -66.0818 157.948
2853 -18.0028 14.9529 1.4 11.3284 -65.7219 -171.593
2854 -17.5028 14.9529 1.4 10.8316 -65.358 -141.773
2855 -17.0028 14.9529 1.4 10.3351 -250 0
2856 -16.5028 14.9529 1.4 9.83892 -250 0
2857 -16.0028 14.9529 1.4 9.34316 -250 0
2858 -15.5028 14.9529 1.4 8.84788 -250 0
2859 -15.0028 14.9529 1.4 8.35317 -250 0
2860 -14.5028 14.9529 1.4 7.85912 -250 0
2861 -14.0028 14.9529 1.4 7.36587 -250 0
2862 -13.5028 14.9529 1.4 6.8736 -60.6878 -22.9212
2863 -13.0028 14.9529 1.4 6.38254 -70.736 -78.9413
2864 -12.5028 14.9529 1.4 5.89298 -60.8116 -75.1176
2865 -12.0028 14.9529 1.4 5.40532 -65.3708 -41.7053
2866 -11.5028 14.9529 1.4 4.92015 -87.8842 68.9913
2867 -11.0028 14.9529 1.4 4.43827 -73.7247 59.2308
2868 -10.5028 14.9529 1.4 3.96088 -80.8985 -52.6559
2869 -10.0028 14.9529 1.4 3.48984 -46.278 122.896
2870 -9.50282 14.9529 1.4 3.02809 -51.166 47.5111
2871 -9.00282 14.9529 1.4 2.58063 -43.6287 -86.5553
2872 -8.50282 14.9529 1.4 2.15639 -43.8858 126.924
2873 -8.00282 14.9529 1.4 1.77211 -41.1443 -127.524
2874 -7.50282 14.9529 1.4 1.45971 -53.1474 107.829
2875 -7.00282 14.9529 1.4 1.27323 -38.1056 -111.756
2876 -6.50282 14.9529 1.4 1.26943 -37.3584 -174.467
2877 -6.00282 14.9529 1.4 1.44977 -40.4287 33.2766
2878 -5.50282 14.9529 1.4 1.75846 -44.4039 -159.471
2879 -5.00282 14.9529 1.4 2.14069 -39.82 150.733
2880 -4.50282 14.9529 1.4 2.56377 -45.7172 -46.238
2881 -4.00282 14.9529 1.4 3.01052 -49.2995 124.845
2882 -3.50282 14.9529 1.4 3.47183 -45.9462 -156.093
2883 -3.00282 14.9529 1.4 3.94258 -46.1234 -131.983
2884 -2.50282 14.9529 1.4 4.41977 -48.6282 -101.067
2885 -2.00282 14.9529 1.4 4.9015 -48.9027 -87.3744
2886 -1.50282 14.9529 1.4 5.38656 -53.899 -57.5623
2887 -1.00282 14.9529 1.4 5.87413 -55.4015 -70.4834
2888 -0.50282 14.9529 1.4 6.36363 -70.3533 -111.708
2889 -0.00282 14.9529 1.4 6.85464 -55.9596 168.648
2890 0.49718 14.9529 1.4 7.34687 -55.2118 170.476
2891 0.99718 14.9529 1.4 7.84008 -55.1028 170.666
2892 1.49718 14.9529 1.4 8.3341 -56.1967 166.721
2893 1.99718 14.9529 1.4 8.82879 -59.2013 153.477
2894 2.49718 14.9529 1.4 9.32405 -62.1332 100.312
2895 2.99718 14.9529 1.4 9.81979 -61.7745 56.5602
2896 3.49718 14.9529 1.4 10.3159 -250 0
2897 3.99718 14.9529 1.4 10.8124 -250 0
2898 4.49718 14.9529 1.4 11.3093 -250 0
2899 4.99718 14.9529 1.4 11.8063 -250 0
2900 5.49718 14.9529 1.4 12.3037 -250 0
2901 5.99718 14.9529 1.4 12.8012 -250 0
2902 6.49718 14.9529 1.4 13.2989 -250 0
2903 6.99718 14.9529 1.4 13.7968 -64.1986 110.626
2904 7.49718 14.9529 1.4 14.2948 -68.8298 64.9502
2905 7.99718 14.9529 1.4 14.793 -66.4689 -1.72127
2906 8.49718 14.9529 1.4 15.2912 -62.7768 -27.1593
2907 8.99718 14.9529 1.4 15.7896 -61.9067 -40.1568
2908 9.49718 14.9529 1.4 16.2881 -63.8313 -52.9367
2909 9.99718 14.9529 1.4 16.7867 -65.9013 -96.6939
2910 10.4972 14.9529 1.4 17.2854 -250 0
2911 10.9972 14.9529 1.4 17.7841 -250 0
2912 11.4972 14.9529 1.4 18.2829 -250 0
2913 11.9972 14.9529 1.4 18.7818 -250 0
2914 12.4972 14.9529 1.4 19.2807 -250 0
2915 12.9972 14.9529 1.4 19.7797 -250 0
2916 13.4972 14.9529 1.4 20.2787 -250 0
2917 13.9972 14.9529 1.4 20.7778 -250 0
2918 14.4972 14.9529 1.4 21.2769 -250 0
2919 14.9972 14.9529 1.4 21.7761 -250 0
2920 15.4972 14.9529 1.4 22.2753 -250 0
2921 15.9972 14.9529 1.4 22.7745 -250 0
2922 16.4972 14.9529 1.4 23.2738 -250 0
2923 16.9972 14.9529 1.4 23.7731 -250 0
2924 17.4972 14.9529 1.4 24.2724 -250 0
2925 17.9972 14.9529 1.4 24.7717 -250 0
2926 18.4972 14.9529 1.4 25.2711 -250 0
2927 18.9972 14.9529 1.4 25.7705 -250 0
2928 19.4972 14.9529 1.4 26.2699 -250 0
2929 19.9972 14.9529 1.4 26.7694 -250 0
2930 20.4972 14.9529 1.4 27.2689 -250 0
2931 20.9972 14.9529 1.4 27.7683 -250 0
2932 21.4972 14.9529 1.4 28.2679 -250 0
2933 21.9972 14.9529 1.4 28.7674 -250 0
2934 22.4972 14.9529 1.4 29.2669 -250 0
2935 22.9972 14.9529 1.4 29.7665 -250 0
2936 23.4972 14.9529 1.4 30.266 -250 0
2937 23.9972 14.9529 1.4 30.7656 -250 0
2938 24.4972 14.9529 1.4 31.2652 -250 0
2939 24.9972 14.9529 1.4 31.7648 -250 0
2940 25.4972 14.9529 1.4 32.2644 -250 0
2941 25.9972 14.9529 1.4 32.7641 -250 0
2942 26.4972 14.9529 1.4 33.2637 -250 0
2943 26.9972 14.9529 1.4 33.7634 -250 0
2944 27.4972 14.9529 1.4 34.263 -250 0
2945 27.9972 14.9529 1.4 34.7627 -250 0
2946 28.4972 14.9529 1.4 35.2624 -250 0
2947 28.9972 14.9529 1.4 35.7621 -250 0
2948 29.4972 14.9529 1.4 36.2618 -250 0
2949 29.9972 14.9529 1.4 36.7615 -250 0
2950 30.4972 14.9529 1.4 37.2612 -250 0
2951 -28.0028 15.4529 1.4 21.2727 -250 0
2952 -27.5028 15.4529 1.4 20.7731 -250 0
2953 -27.0028 15.4529 1.4 20.2734 -250 0
2954 -26.5028 15.4529 1.4 19.7737 -250 0
2955 -26.0028 15.4529 1.4 19.2741 -250 0
2956 -25.5028 15.4529 1.4 18.7745 -250 0
2957 -25.0028 15.4529 1.4 18.2749 -81.1875 115.699
2958 -24.5028 15.4529 1.4 17.7753 -91.5088 -69.2922
2959 -24.0028 15.4529 1.4 17.2758 -81.3441 41.4852
2960 -23.5028 15.4529 1.4 16.7763 -250 0
2961 -23.0028 15.4529 1.4 16.2768 -72.1824 -139.604
2962 -22.5028 15.4529 1.4 15.7773 -250 0
2963 -22.0028 15.4529 1.4 15.2779 -250 0
2964 -21.5028 15.4529 1.4 14.7785 -250 0
2965 -21.0028 15.4529 1.4 14.2792 -250 0
2966 -20.5028 15.4529 1.4 13.7799 -63.8628 64.1456
2967 -20.0028 15.4529 1.4 13.2806 -62.7518 138.623
2968 -19.5028 15.4529 1.4 12.7815 -67.4542 -160.535
2969 -19.0028 15.4529 1.4 12.2823 -67.0916 -125.129
2970 -18.5028 15.4529 1.4 11.7833 -66.7135 -89.8976
2971 -18.0028 15.4529 1.4 11.2844 -66.3189 -54.8627
2972 -17.5028 15.4529 1.4 10.7855 -65.9064 -20.0513
2973 -17.0028 15.4529 1.4 10.2868 -250 0
2974 -16.5028 15.4529 1.4 9.78815 -250 0
2975 -16.0028 15.4529 1.4 9.28968 -250 0
2976 -15.5028 15.4529 1.4 8.79139 -250 0
2977 -15.0028 15.4529 1.4 8.2933 -250 0
2978 -14.5028 15.4529 1.4 7.79546 -250 0
2979 -14.0028 15.4529 1.4 7.29792 -250 0
2980 -13.5028 15.4529 1.4 6.80073 -61.2963 176.381
2981 -13.0028 15.4529 1.4 6.30399 -73.7432 123.256
2982 -12.5028 15.4529 1.4 5.80781 -60.7191 118.24
2983 -12.0028 15.4529 1.4 5.31235 -69.3926 149.011
2984 -11.5028 15.4529 1.4 4.81782 -67.6757 -10.7111
2985 -11.0028 15.4529 1.4 4.32455 -63.3157 -20.8575
2986 -10.5028 15.4529 1.4 3.83303 -49.7058 -64.8489
2987 -10.0028 15.4529 1.4 3.34402 -50.1637 165.883
2988 -9.50282 15.4529 1.4 2.85882 -49.494 147.595
2989 -9.00282 15.4529 1.4 2.37975 -47.3548 110.892
2990 -8.50282 15.4529 1.4 1.91143 -41.9634 80.12
2991 -8.00282 15.4529 1.4 1.46421 -40.195 -4.29095
2992 -7.50282 15.4529 1.4 1.06502 -36.816 146.328
2993 -7.00282 15.4529 1.4 0.790336 -36.677 155.166
2994 -6.50282 15.4529 1.4 0.784213 -34.4463 -169.282
2995 -6.00282 15.4529 1.4 1.05136 -35.2634 147.388
2996 -5.50282 15.4529 1.4 1.44766 -42.3034 27.6064
2997 -5.00282 15.4529 1.4 1.89369 -42.8654 -170.805
2998 -4.50282 15.4529 1.4 2.36145 -41.0627 -114.619
2999 -4.00282 15.4529 1.4 2.84021 -43.5493 -100.729
3000 -3.50282 15.4529 1.4 3.32523 -47.9107 -145.634
3001 -3.00282 15.4529 1.4 3.81412 -48.8602 -166.975
3002 -2.50282 15.4529 1.4 4.30556 -47.7543 -171.46
3003 -2.00282 15.4529 1.4 4.79877 -45.2011 177.973
3004 -1.50282 15.4529 1.4 5.29326 -45.8237 171.736
3005 -1.00282 15.4529 1.4 5.78869 -46.796 153.298
3006 -0.50282 15.4529 1.4 6.28485 -53.2204 136.372
3007 -0.00282 15.4529 1.4 6.78157 -54.8765 36.7784
3008 0.49718 15.4529 1.4 7.27874 -52.9794 -3.48694
3009 0.99718 15.4529 1.4 7.77627 -51.4123 -26.9271
3010 1.49718 15.4529 1.4 8.2741 -51.697 -44.7658
3011 1.99718 15.4529 1.4 8.77218 -53.5406 -64.8305
3012 2.49718 15.4529 1.4 9.27046 -59.9371 -121.368
3013 2.99718 15.4529 1.4 9.76892 -54.1795 -177.916
3014 3.49718 15.4529 1.4 10.2675 -250 0
3015 3.99718 15.4529 1.4 10.7663 -250 0
3016 4.49718 15.4529 1.4 11.2651 -250 0
3017 4.99718 15.4529 1.4 11.7641 -250 0
3018 5.49718 15.4529 1.4 12.2631 -250 0
3019 5.99718 15.4529 1.4 12.7622 -250 0
3020 6.49718 15.4529 1.4 13.2614 -250 0
3021 6.99718 15.4529 1.4 13.7606 -62.6031 -157.286
3022 7.49718 15.4529 1.4 14.2599 -67.0356 168.029
3023 7.99718 15.4529 1.4 14.7592 -67.4269 94.0063
3024 8.49718 15.4529 1.4 15.2586 -63.0924 58.2361
3025 8.99718 15.4529 1.4 15.758 -61.7415 42.4045
3026 9.49718 15.4529 1.4 16.2575 -61.9639 43.6953
3027 9.99718 15.4529 1.4 16.757 -66.9491 -6.62091
3028 10.4972 15.4529 1.4 17.2565 -250 0
3029 10.9972 15.4529 1.4 17.7561 -250 0
3030 11.4972 15.4529 1.4 18.2556 -250 0
3031 11.9972 15.4529 1.4 18.7552 -250 0
3032 12.4972 15.4529 1.4 19.2548 -250 0
3033 12.9972 15.4529 1.4 19.7545 -250 0
3034 13.4972 15.4529 1.4 20.2541 -250 0
3035 13.9972 15.4529 1.4 20.7538 -73.6617 135.375
3036 14.4972 15.4529 1.4 21.2535 -73.2916 68.7375
3037 14.9972 15.4529 1.4 21.7532 -250 0
3038 15.4972 15.4529 1.4 22.2529 -250 0
3039 15.9972 15.4529 1.4 22.7526 -250 0
3040 16.4972 15.4529 1.4 23.2523 -250 0
3041 16.9972 15.4529 1.4 23.7521 -250 0
3042 17.4972 15.4529 1.4 24.2518 -250 0
3043 17.9972 15.4529 1.4 24.7516 -250 0
3044 18.4972 15.4529 1.4 25.2514 -250 0
3045 18.9972 15.4529 1.4 25.7512 -250 0
3046 19.4972 15.4529 1.4 26.251 -250 0
3047 19.9972 15.4529 1.4 26.7508 -250 0
3048 20.4972 15.4529 1.4 27.2506 -250 0
3049 20.9972 15.4529 1.4 27.7504 -250 0
3050 21.4972 15.4529 1.4 28.2502 -250 0
3051 21.9972 15.4529 1.4 28.7501 -250 0
3052 22.4972 15.4529 1.4 29.2499 -250 0
3053 22.9972 15.4529 1.4 29.7497 -250 0
3054 23.4972 15.4529 1.4 30.2496 -250 0
3055 23.9972 15.4529 1.4 30.7494 -250 0
3056 24.4972 15.4529 1.4 31.2493 -250 0
3057 24.9972 15.4529 1.4 31.7491 -250 0
3058 25.4972 15.4529 1.4 32.249 -250 0
3059 25.9972 15.4529 1.4 32.7489 -250 0
3060 26.4972 15.4529 1.4 33.2487 -250 0
3061 26.9972 15.4529 1.4 33.7486 -250 0
3062 27.4972 15.4529 1.4 34.2485 -250 0
3063 27.9972 15.4529 1.4 34.7484 -250 0
3064 28.4972 15.4529 1.4 35.2483 -250 0
3065 28.9972 15.4529 1.4 35.7482 -250 0
3066 29.4972 15.4529 1.4 36.248 -250 0
3067 29.9972 15.4529 1.4 36.7479 -250 0
3068 30.4972 15.4529 1.4 37.2478 -250 0
3069 -28.0028 15.9529 1.4 21.2611 -250 0
3070 -27.5028 15.9529 1.4 20.7611 -250 0
3071 -27.0028 15.9529 1.4 20.2611 -250 0
3072 -26.5028 15.9529 1.4 19.7612 -250 0
3073 -26.0028 15.9529 1.4 19.2612 -250 0
3074 -25.5028 15.9529 1.4 18.7613 -80.6433 -154.655
3075 -25.0028 15.9529 1.4 18.2613 -250 0
3076 -24.5028 15.9529 1.4 17.7614 -74.0288 21.4811
3077 -24.0028 15.9529 1.4 17.2614 -250 0
3078 -23.5028 15.9529 1.4 16.7615 -250 0
3079 -23.0028 15.9529 1.4 16.2615 -250 0
3080 -22.5028 15.9529 1.4 15.7616 -250 0
3081 -22.0028 15.9529 1.4 15.2616 -250 0
3082 -21.5028 15.9529 1.4 14.7617 -250 0
3083 -21.0028 15.9529 1.4 14.2618 -250 0
3084 -20.5028 15.9529 1.4 13.7618 -60.7023 172.394
3085 -20.0028 15.9529 1.4 13.2619 -63.9931 -110.727
3086 -19.5028 15.9529 1.4 12.762 -70.0463 -78.3962
3087 -19.0028 15.9529 1.4 12.2621 -67.7308 -70.2444
3088 -18.5028 15.9529 1.4 11.7622 -67.3807 -32.8199
3089 -18.0028 15.9529 1.4 11.2623 -67.0153 4.59248
3090 -17.5028 15.9529 1.4 10.7625 -66.6332 41.9904
3091 -17.0028 15.9529 1.4 10.2626 -250 0
3092 -16.5028 15.9529 1.4 9.76275 -250 0
3093 -16.0028 15.9529 1.4 9.26292 -250 0
3094 -15.5028 15.9529 1.4 8.76311 -250 0
3095 -15.0028 15.9529 1.4 8.26332 -250 0
3096 -14.5028 15.9529 1.4 7.76355 -250 0
3097 -14.0028 15.9529 1.4 7.26382 -250 0
3098 -13.5028 15.9529 1.4 6.76413 -60.0202 -87.8146
3099 -13.0028 15.9529 1.4 6.26449 -69.694 -139.091
3100 -12.5028 15.9529 1.4 5.76491 -59.758 -150.256
3101 -12.0028 15.9529 1.4 5.26541 -73.7616 -151.763
3102 -11.5028 15.9529 1.4 4.76602 -64.5964 75.7781
3103 -11.0028 15.9529 1.4 4.26677 -49.8052 52.0374
3104 -10.5028 15.9529 1.4 3.76771 -52.9938 140.165
3105 -10.0028 15.9529 1.4 3.26895 -46.675 5.77045
3106 -9.50282 15.9529 1.4 2.77063 -45.9714 41.2104
3107 -9.00282 15.9529 1.4 2.27304 -44.5827 85.0279
3108 -8.50282 15.9529 1.4 1.77682 -42.3206 106.059
3109 -8.00282 15.9529 1.4 1.28353 -39.8639 129.296
3110 -7.50282 15.9529 1.4 0.798626 -36.0913 130.777
3111 -7.00282 15.9529 1.4 0.357996 -28.7431 6.25593
3112 -6.50282 15.9529 1.4 0.344267 -28.6229 58.9866
3113 -6.00282 15.9529 1.4 0.780306 -31.796 -140.875
3114 -5.50282 15.9529 1.4 1.26461 -35.0071 -138.89
3115 -5.00282 15.9529 1.4 1.75772 -37.6016 -160.605
3116 -4.50282 15.9529 1.4 2.25388 -39.3168 170.533
3117 -4.00282 15.9529 1.4 2.75142 -42.1614 146.023
3118 -3.50282 15.9529 1.4 3.24972 -43.359 64.4393
3119 -3.00282 15.9529 1.4 3.74847 -47.6415 31.6843
3120 -2.50282 15.9529 1.4 4.24752 -49.1545 -11.3441
3121 -2.00282 15.9529 1.4 4.74676 -45.6386 -55.6525
3122 -1.50282 15.9529 1.4 5.24615 -45.3433 -78.0839
3123 -1.00282 15.9529 1.4 5.74565 -45.8792 -103.655
3124 -0.50282 15.9529 1.4 6.24522 -52.1088 -130.908
3125 -0.00282 15.9529 1.4 6.74486 -53.3058 134.761
3126 0.49718 15.9529 1.4 7.24455 -52.7836 80.6725
3127 0.99718 15.9529 1.4 7.74428 -50.7883 47.234
3128 1.49718 15.9529 1.4 8.24404 -51.3127 24.8155
3129 1.99718 15.9529 1.4 8.74383 -52.3174 -1.38128
3130 2.49718 15.9529 1.4 9.24364 -58.42 -36.2877
3131 2.99718 15.9529 1.4 9.74348 -55.2046 -127.265
3132 3.49718 15.9529 1.4 10.2433 -250 0
3133 3.99718 15.9529 1.4 10.7432 -250 0
3134 4.49718 15.9529 1.4 11.2431 -250 0
3135 4.99718 15.9529 1.4 11.7429 -250 0
3136 5.49718 15.9529 1.4 12.2428 -250 0
3137 5.99718 15.9529 1.4 12.7427 -250 0
3138 6.49718 15.9529 1.4 13.2427 -250 0
3139 6.99718 15.9529 1.4 13.7426 -62.1385 -111.892
3140 7.49718 15.9529 1.4 14.2425 -66.2292 -143.622
3141 7.99718 15.9529 1.4 14.7424 -67.8152 142.386
3142 8.49718 15.9529 1.4 15.2424 -60.3029 100.321
3143 8.99718 15.9529 1.4 15.7423 -64.1883 69.2014
3144 9.49718 15.9529 1.4 16.2422 -64.1035 75.4152
3145 9.99718 15.9529 1.4 16.7422 -67.3183 27.8157
3146 10.4972 15.9529 1.4 17.2421 -250 0
3147 10.9972 15.9529 1.4 17.7421 -250 0
3148 11.4972 15.9529 1.4 18.242 -250 0
3149 11.9972 15.9529 1.4 18.742 -250 0
3150 12.4972 15.9529 1.4 19.2419 -250 0
3151 12.9972 15.9529 1.4 19.7419 -250 0
3152 13.4972 15.9529 1.4 20.2419 -92.7031 -68.1567
3153 13.9972 15.9529 1.4 20.7418 -250 0
3154 14.4972 15.9529 1.4 21.2418 -74.0221 -144.507
3155 14.9972 15.9529 1.4 21.7418 -73.6081 151.315
3156 15.4972 15.9529 1.4 22.2417 -250 0
3157 15.9972 15.9529 1.4 22.7417 -250 0
3158 16.4972 15.9529 1.4 23.2417 -250 0
3159 16.9972 15.9529 1.4 23.7416 -250 0
3160 17.4972 15.9529 1.4 24.2416 -250 0
3161 17.9972 15.9529 1.4 24.7416 -250 0
3162 18.4972 15.9529 1.4 25.2416 -250 0
3163 18.9972 15.9529 1.4 25.7415 -250 0
3164 19.4972 15.9529 1.4 26.2415 -250 0
3165 19.9972 15.9529 1.4 26.7415 -250 0
3166 20.4972 15.9529 1.4 27.2415 -250 0
3167 20.9972 15.9529 1.4 27.7415 -250 0
3168 21.4972 15.9529 1.4 28.2414 -250 0
3169 21.9972 15.9529 1.4 28.7414 -250 0
3170 22.4972 15.9529 1.4 29.2414 -250 0
3171 22.9972 15.9529 1.4 29.7414 -250 0
3172 23.4972 15.9529 1.4 30.2414 -250 0
3173 23.9972 15.9529 1.4 30.7413 -250 0
3174 24.4972 15.9529 1.4 31.2413 -250 0
3175 24.9972 15.9529 1.4 31.7413 -250 0
3176 25.4972 15.9529 1.4 32.2413 -250 0
3177 25.9972 15.9529 1.4 32.7413 -250 0
3178 26.4972 15.9529 1.4 33.2413 -250 0
3179 26.9972 15.9529 1.4 33.7413 -250 0
3180 27.4972 15.9529 1.4 34.2412 -250 0
3181 27.9972 15.9529 1.4 34.7412 -250 0
3182 28.4972 15.9529 1.4 35.2412 -250 0
3183 28.9972 15.9529 1.4 35.7412 -250 0
3184 29.4972 15.9529 1.4 36.2412 -250 0
3185 29.9972 15.9529 1.4 36.7412 -250 0
3186 30.4972 15.9529 1.4 37.2412 -250 0
3187 -28.0028 16.4529 1.4 21.2612 -86.4216 -49.9281
3188 -27.5028 16.4529 1.4 20.7612 -87.0454 -162.75
3189 -27.0028 16.4529 1.4 20.2612 -86.8285 64.1605
3190 -26.5028 16.4529 1.4 19.7613 -85.9243 -42.2021
3191 -26.0028 16.4529 1.4 19.2613 -84.6216 -152.413
3192 -25.5028 16.4529 1.4 18.7614 -81.393 60.8151
3193 -25.0028 16.4529 1.4 18.2614 -76.7539 168.064
3194 -24.5028 16.4529 1.4 17.7615 -72.0797 -5.64856
3195 -24.0028 16.4529 1.4 17.2615 -250 0
3196 -23.5028 16.4529 1.4 16.7616 -250 0
3197 -23.0028 16.4529 1.4 16.2616 -250 0
3198 -22.5028 16.4529 1.4 15.7617 -250 0
3199 -22.0028 16.4529 1.4 15.2617 -250 0
3200 -21.5028 16.4529 1.4 14.7618 -250 0
3201 -21.0028 16.4529 1.4 14.2619 -250 0
3202 -20.5028 16.4529 1.4 13.762 -73.9931 156.872
3203 -20.0028 16.4529 1.4 13.2621 -60.7995 151.744
3204 -19.5028 16.4529 1.4 12.7622 -59.0646 -108.014
3205 -19.0028 16.4529 1.4 12.2623 -62.6656 -26.5489
3206 -18.5028 16.4529 1.4 11.7624 -67.3753 -33.2448
3207 -18.0028 16.4529 1.4 11.2625 -67.0096 4.14938
3208 -17.5028 16.4529 1.4 10.7626 -66.6271 41.5276
3209 -17.0028 16.4529 1.4 10.2628 -250 0
3210 -16.5028 16.4529 1.4 9.76293 -250 0
3211 -16.0028 16.4529 1.4 9.26311 -250 0
3212 -15.5028 16.4529 1.4 8.76331 -250 0
3213 -15.0028 16.4529 1.4 8.26353 -250 0
3214 -14.5028 16.4529 1.4 7.76378 -250 0
3215 -14.0028 16.4529 1.4 7.26407 -250 0
3216 -13.5028 16.4529 1.4 6.76439 -60.0309 -88.4971
3217 -13.0028 16.4529 1.4 6.26477 -69.727 -139.724
3218 -12.5028 16.4529 1.4 5.76522 -59.7646 -150.911
3219 -12.0028 16.4529 1.4 5.26575 -55.0552 8.1952
3220 -11.5028 16.4529 1.4 4.76639 -51.6412 130.238
3221 -11.0028 16.4529 1.4 4.26718 -57.7781 -123.657
3222 -10.5028 16.4529 1.4 3.76818 -61.1073 37.7878
3223 -10.0028 16.4529 1.4 3.26949 -46.6581 6.28015
3224 -9.50282 16.4529 1.4 2.77126 -45.9657 41.4721
3225 -9.00282 16.4529 1.4 2.27382 -44.4362 83.1911
3226 -8.50282 16.4529 1.4 1.77781 -42.3725 104.974
3227 -8.00282 16.4529 1.4 1.2849 -39.9827 126.821
3228 -7.50282 16.4529 1.4 0.800833 -36.2931 125.217
3229 -7.00282 16.4529 1.4 0.362893 -28.456 -10.1648
3230 -6.50282 16.4529 1.4 0.349356 -28.3194 40.976
3231 -6.00282 16.4529 1.4 0.782565 -31.697 -146.362
3232 -5.50282 16.4529 1.4 1.266 -35.1349 -143.253
3233 -5.00282 16.4529 1.4 1.75873 -37.7453 -161.308
3234 -4.50282 16.4529 1.4 2.25466 -39.7456 169.072
3235 -4.00282 16.4529 1.4 2.75206 -42.1019 143.8
3236 -3.50282 16.4529 1.4 3.25026 -43.4224 64.7572
3237 -3.00282 16.4529 1.4 3.74894 -47.3831 31.1225
3238 -2.50282 16.4529 1.4 4.24793 -48.1082 -6.72007
3239 -2.00282 16.4529 1.4 4.74713 -45.3717 -56.0932
3240 -1.50282 16.4529 1.4 5.24649 -45.0819 -78.4258
3241 -1.00282 16.4529 1.4 5.74595 -45.674 -103.947
3242 -0.50282 16.4529 1.4 6.24551 -51.8624 -131.549
3243 -0.00282 16.4529 1.4 6.74512 -53.2015 137.843
3244 0.49718 16.4529 1.4 7.2448 -52.5747 80.3672
3245 0.99718 16.4529 1.4 7.74451 -51.1119 44.3638
3246 1.49718 16.4529 1.4 8.24426 -49.8953 25.6934
3247 1.99718 16.4529 1.4 8.74403 -53.3392 6.10657
3248 2.49718 16.4529 1.4 9.24384 -57.6384 -60.5149
3249 2.99718 16.4529 1.4 9.74366 -54.1291 -113.196
3250 3.49718 16.4529 1.4 10.2435 -250 0
3251 3.99718 16.4529 1.4 10.7434 -250 0
3252 4.49718 16.4529 1.4 11.2432 -250 0
3253 4.99718 16.4529 1.4 11.7431 -250 0
3254 5.49718 16.4529 1.4 12.243 -250 0
3255 5.99718 16.4529 1.4 12.7429 -250 0
3256 6.49718 16.4529 1.4 13.2428 -250 0
3257 6.99718 16.4529 1.4 13.7427 -61.9564 -112.611
3258 7.49718 16.4529 1.4 14.2426 -65.9809 -142.87
3259 7.99718 16.4529 1.4 14.7425 -63.9765 130.074
3260 8.49718 16.4529 1.4 15.2425 -67.9164 74.7205
3261 8.99718 16.4529 1.4 15.7424 -60.0931 93.9767
3262 9.49718 16.4529 1.4 16.2423 -66.1898 44.0022
3263 9.99718 16.4529 1.4 16.7423 -66.0882 52.9709
3264 10.4972 16.4529 1.4 17.2422 -85.7477 80.6529
3265 10.9972 16.4529 1.4 17.7422 -250 0
3266 11.4972 16.4529 1.4 18.2421 -250 0
3267 11.9972 16.4529 1.4 18.7421 -250 0
3268 12.4972 16.4529 1.4 19.242 -250 0
3269 12.9972 16.4529 1.4 19.742 -92.4864 -138.656
3270 13.4972 16.4529 1.4 20.2419 -91.4737 -174.628
3271 13.9972 16.4529 1.4 20.7419 -78.9766 104
3272 14.4972 16.4529 1.4 21.2419 -250 0
3273 14.9972 16.4529 1.4 21.7418 -75.6417 -45.2669
3274 15.4972 16.4529 1.4 22.2418 -74.6334 -113.923
3275 15.9972 16.4529 1.4 22.7418 -86.8985 -166.519
3276 16.4972 16.4529 1.4 23.2417 -250 0
3277 16.9972 16.4529 1.4 23.7417 -90.0812 -165.862
3278 17.4972 16.4529 1.4 24.2417 -250 0
3279 17.9972 16.4529 1.4 24.7417 -250 0
3280 18.4972 16.4529 1.4 25.2416 -250 0
3281 18.9972 16.4529 1.4 25.7416 -250 0
3282 19.4972 16.4529 1.4 26.2416 -250 0
3283 19.9972 16.4529 1.4 26.7416 -250 0
3284 20.4972 16.4529 1.4 27.2415 -250 0
3285 20.9972 16.4529 1.4 27.7415 -250 0
3286 21.4972 16.4529 1.4 28.2415 -250 0
3287 21.9972 16.4529 1.4 28.7415 -250 0
3288 22.4972 16.4529 1.4 29.2415 -250 0
3289 22.9972 16.4529 1.4 29.7414 -250 0
3290 23.4972 16.4529 1.4 30.2414 -96.918 60.9501
3291 23.9972 16.4529 1.4 30.7414 -250 0
3292 24.4972 16.4529 1.4 31.2414 -98.57 30.571
3293 24.9972 16.4529 1.4 31.7414 -97.0073 -156.146
3294 25.4972 16.4529 1.4 32.2414 -250 0
3295 25.9972 16.4529 1.4 32.7413 -250 0
3296 26.4972 16.4529 1.4 33.2413 -250 0
3297 26.9972 16.4529 1.4 33.7413 -250 0
3298 27.4972 16.4529 1.4 34.2413 -250 0
3299 27.9972 16.4529 1.4 34.7413 -250 0
3300 28.4972 16.4529 1.4 35.2413 -94.1898 -177.3
3301 28.9972 16.4529 1.4 35.7413 -250 0
3302 29.4972 16.4529 1.4 36.2412 -250 0
3303 29.9972 16.4529 1.4 36.7412 -250 0
3304 30.4972 16.4529 1.4 37.2412 -250 0
3305 -28.0028 16.9529 1.4 21.273 -89.7898 19.8285
3306 -27.5028 16.9529 1.4 20.7733 -100.676 172.205
3307 -27.0028 16.9529 1.4 20.2737 -88.359 125.324
3308 -26.5028 16.9529 1.4 19.774 -76.26 -3.60245
3309 -26.0028 16.9529 1.4 19.2744 -76.8838 96.6795
3310 -25.5028 16.9529 1.4 18.7748 -71.5133 -49.988
3311 -25.0028 16.9529 1.4 18.2752 -81.0199 -69.2342
3312 -24.5028 16.9529 1.4 17.7756 -80.8987 -123.171
3313 -24.0028 16.9529 1.4 17.2761 -250 0
3314 -23.5028 16.9529 1.4 16.7766 -250 0
3315 -23.0028 16.9529 1.4 16.2771 -250 0
3316 -22.5028 16.9529 1.4 15.7776 -250 0
3317 -22.0028 16.9529 1.4 15.2782 -250 0
3318 -21.5028 16.9529 1.4 14.7789 -250 0
3319 -21.0028 16.9529 1.4 14.2795 -250 0
3320 -20.5028 16.9529 1.4 13.7803 -63.2033 134.582
3321 -20.0028 16.9529 1.4 13.281 -67.1472 129.799
3322 -19.5028 16.9529 1.4 12.7819 -78.2306 -69.7698
3323 -19.0028 16.9529 1.4 12.2828 -63.2007 -167.142
3324 -18.5028 16.9529 1.4 11.7838 -59.7692 -80.0994
3325 -18.0028 16.9529 1.4 11.2848 -66.3077 -56.1617
3326 -17.5028 16.9529 1.4 10.786 -65.895 -21.4059
3327 -17.0028 16.9529 1.4 10.2873 -250 0
3328 -16.5028 16.9529 1.4 9.78869 -250 0
3329 -16.0028 16.9529 1.4 9.29025 -250 0
3330 -15.5028 16.9529 1.4 8.79199 -250 0
3331 -15.0028 16.9529 1.4 8.29394 -250 0
3332 -14.5028 16.9529 1.4 7.79614 -250 0
3333 -14.0028 16.9529 1.4 7.29864 -250 0
3334 -13.5028 16.9529 1.4 6.80151 -61.3189 174.178
3335 -13.0028 16.9529 1.4 6.30483 -73.8204 120.841
3336 -12.5028 16.9529 1.4 5.80872 -51.4041 114.563
3337 -12.0028 16.9529 1.4 5.31335 -54.2059 -132.317
3338 -11.5028 16.9529 1.4 4.81892 -52.734 -30.4214
3339 -11.0028 16.9529 1.4 4.32578 -65.7193 -49.3367
3340 -10.5028 16.9529 1.4 3.83441 -69.1936 -32.1868
3341 -10.0028 16.9529 1.4 3.3456 -50.4368 152.074
3342 -9.50282 16.9529 1.4 2.86067 -49.0979 132.612
3343 -9.00282 16.9529 1.4 2.38197 -46.0546 102.998
3344 -8.50282 16.9529 1.4 1.9142 -41.5045 76.4644
3345 -8.00282 16.9529 1.4 1.46782 -41.088 -14.3306
3346 -7.50282 16.9529 1.4 1.06998 -36.6188 135.445
3347 -7.00282 16.9529 1.4 0.797007 -35.821 134.699
3348 -6.50282 16.9529 1.4 0.790936 -34.0831 169.858
3349 -6.00282 16.9529 1.4 1.05638 -35.583 134.409
3350 -5.50282 16.9529 1.4 1.45131 -41.4585 12.4828
3351 -5.00282 16.9529 1.4 1.89648 -43.1389 176.382
3352 -4.50282 16.9529 1.4 2.36369 -40.9904 -120.772
3353 -4.00282 16.9529 1.4 2.84207 -43.104 -108.937
3354 -3.50282 16.9529 1.4 3.32682 -48.7437 -149.107
3355 -3.00282 16.9529 1.4 3.81551 -50.1713 -169.168
3356 -2.50282 16.9529 1.4 4.30679 -47.7998 -162.307
3357 -2.00282 16.9529 1.4 4.79988 -45.0885 -179.607
3358 -1.50282 16.9529 1.4 5.29426 -45.4208 174.356
3359 -1.00282 16.9529 1.4 5.7896 -46.2368 153.964
3360 -0.50282 16.9529 1.4 6.28569 -52.0384 135.338
3361 -0.00282 16.9529 1.4 6.78235 -52.9911 45.1558
3362 0.49718 16.9529 1.4 7.27946 -53.9114 12.3227
3363 0.99718 16.9529 1.4 7.77695 -52.0864 -31.7497
3364 1.49718 16.9529 1.4 8.27474 -50.3982 -42.2286
3365 1.99718 16.9529 1.4 8.77278 -54.1822 -59.554
3366 2.49718 16.9529 1.4 9.27103 -59.1034 -110.787
3367 2.99718 16.9529 1.4 9.76946 -54.6753 -168.786
3368 3.49718 16.9529 1.4 10.268 -250 0
3369 3.99718 16.9529 1.4 10.7668 -250 0
3370 4.49718 16.9529 1.4 11.2656 -250 0
3371 4.99718 16.9529 1.4 11.7645 -250 0
3372 5.49718 16.9529 1.4 12.2635 -250 0
3373 5.99718 16.9529 1.4 12.7626 -250 0
3374 6.49718 16.9529 1.4 13.2618 -250 0
3375 6.99718 16.9529 1.4 13.761 -62.3197 -157.253
3376 7.49718 16.9529 1.4 14.2603 -67.1196 -171.418
3377 7.99718 16.9529 1.4 14.7596 -63.6324 110.483
3378 8.49718 16.9529 1.4 15.259 -61.752 45.6188
3379 8.99718 16.9529 1.4 15.7584 -58.697 56.2372
3380 9.49718 16.9529 1.4 16.2578 -62.5826 22.0414
3381 9.99718 16.9529 1.4 16.7573 -65.4276 24.7471
3382 10.4972 16.9529 1.4 17.2568 -69.808 130.219
3383 10.9972 16.9529 1.4 17.7564 -77.6854 151.858
3384 11.4972 16.9529 1.4 18.2559 -250 0
3385 11.9972 16.9529 1.4 18.7555 -250 0
3386 12.4972 16.9529 1.4 19.2551 -92.2641 150.846
3387 12.9972 16.9529 1.4 19.7547 -86.4919 55.2407
3388 13.4972 16.9529 1.4 20.2544 -90.3742 -101.893
3389 13.9972 16.9529 1.4 20.754 -92.5769 87.5875
3390 14.4972 16.9529 1.4 21.2537 -91.0035 -71.4951
3391 14.9972 16.9529 1.4 21.7534 -79.7144 43.4272
3392 15.4972 16.9529 1.4 22.2531 -76.3454 37.4963
3393 15.9972 16.9529 1.4 22.7528 -75.514 -30.1436
3394 16.4972 16.9529 1.4 23.2526 -75.1067 -101.06
3395 16.9972 16.9529 1.4 23.7523 -91.7256 5.56609
3396 17.4972 16.9529 1.4 24.2521 -250 0
3397 17.9972 16.9529 1.4 24.7518 -250 0
3398 18.4972 16.9529 1.4 25.2516 -250 0
3399 18.9972 16.9529 1.4 25.7514 -250 0
3400 19.4972 16.9529 1.4 26.2512 -250 0
3401 19.9972 16.9529 1.4 26.751 -250 0
3402 20.4972 16.9529 1.4 27.2508 -250 0
3403 20.9972 16.9529 1.4 27.7506 -89.6593 -92.375
3404 21.4972 16.9529 1.4 28.2504 -250 0
3405 21.9972 16.9529 1.4 28.7502 -250 0
3406 22.4972 16.9529 1.4 29.2501 -250 0
3407 22.9972 16.9529 1.4 29.7499 -96.6563 -13.2734
3408 23.4972 16.9529 1.4 30.2497 -100.782 -16.4417
3409 23.9972 16.9529 1.4 30.7496 -97.9343 -128.71
3410 24.4972 16.9529 1.4 31.2494 -250 0
3411 24.9972 16.9529 1.4 31.7493 -93.2884 -19.7886
3412 25.4972 16.9529 1.4 32.2492 -90.3503 82.037
3413 25.9972 16.9529 1.4 32.749 -250 0
3414 26.4972 16.9529 1.4 33.2489 -250 0
3415 26.9972 16.9529 1.4 33.7488 -250 0
3416 27.4972 16.9529 1.4 34.2486 -250 0
3417 27.9972 16.9529 1.4 34.7485 -91.5519 54.3042
3418 28.4972 16.9529 1.4 35.2484 -84.2958 16.5338
3419 28.9972 16.9529 1.4 35.7483 -250 0
3420 29.4972 16.9529 1.4 36.2482 -250 0
3421 29.9972 16.9529 1.4 36.7481 -250 0
3422 30.4972 16.9529 1.4 37.248 -250 0
3423 -28.0028 17.4529 1.4 21.2966 -79.9507 87.3224
3424 -27.5028 17.4529 1.4 20.7975 -79.1294 24.0162
3425 -27.0028 17.4529 1.4 20.2984 -72.712 32.6491
3426 -26.5028 17.4529 1.4 19.7994 -72.5713 -88.443
3427 -26.0028 17.4529 1.4 19.3004 -80.6273 101.363
3428 -25.5028 17.4529 1.4 18.8015 -88.4615 -166.765
3429 -25.0028 17.4529 1.4 18.3026 -83.9592 117.47
3430 -24.5028 17.4529 1.4 17.8038 -250 0
3431 -24.0028 17.4529 1.4 17.3051 -80.1346 121.482
3432 -23.5028 17.4529 1.4 16.8065 -80.8839 -98.1957
3433 -23.0028 17.4529 1.4 16.3079 -250 0
3434 -22.5028 17.4529 1.4 15.8094 -250 0
3435 -22.0028 17.4529 1.4 15.311 -86.962 65.7863
3436 -21.5028 17.4529 1.4 14.8128 -90.3865 6.11021
3437 -21.0028 17.4529 1.4 14.3146 -98.38 89.7777
3438 -20.5028 17.4529 1.4 13.8166 -67.3291 -11.6628
3439 -20.0028 17.4529 1.4 13.3188 -67.8544 52.2363
3440 -19.5028 17.4529 1.4 12.8211 -67.3923 137.954
3441 -19.0028 17.4529 1.4 12.3236 -63.7096 116.554
3442 -18.5028 17.4529 1.4 11.8263 -63.3653 94.4715
3443 -18.0028 17.4529 1.4 11.3292 -57.6965 -171.305
3444 -17.5028 17.4529 1.4 10.8324 -59.6543 -94.4503
3445 -17.0028 17.4529 1.4 10.3359 -250 0
3446 -16.5028 17.4529 1.4 9.83981 -250 0
3447 -16.0028 17.4529 1.4 9.34411 -250 0
3448 -15.5028 17.4529 1.4 8.84888 -250 0
3449 -15.0028 17.4529 1.4 8.35422 -250 0
3450 -14.5028 17.4529 1.4 7.86024 -250 0
3451 -14.0028 17.4529 1.4 7.36707 -250 0
3452 -13.5028 17.4529 1.4 6.87489 -53.8743 19.3109
3453 -13.0028 17.4529 1.4 6.38392 -53.5728 -112.647
3454 -12.5028 17.4529 1.4 5.89447 -49.7823 -43.1193
3455 -12.0028 17.4529 1.4 5.40696 -52.2145 25.3096
3456 -11.5028 17.4529 1.4 4.92194 -53.2507 99.4153
3457 -11.0028 17.4529 1.4 4.44026 -50.3282 107.128
3458 -10.5028 17.4529 1.4 3.96311 -49.2798 106.289
3459 -10.0028 17.4529 1.4 3.49236 -44.5439 99.9552
3460 -9.50282 17.4529 1.4 3.031 -46.2606 42.4515
3461 -9.00282 17.4529 1.4 2.58405 -43.0903 -85.2841
3462 -8.50282 17.4529 1.4 2.16048 -45.4322 102.368
3463 -8.00282 17.4529 1.4 1.77709 -41.4098 -131.736
3464 -7.50282 17.4529 1.4 1.46574 -51.5343 52.9522
3465 -7.00282 17.4529 1.4 1.28014 -39.5736 -126.137
3466 -6.50282 17.4529 1.4 1.27637 -36.8977 167.074
3467 -6.00282 17.4529 1.4 1.45584 -40.0665 17.2218
3468 -5.50282 17.4529 1.4 1.76347 -43.9243 -171.934
3469 -5.00282 17.4529 1.4 2.1448 -39.9846 138.63
3470 -4.50282 17.4529 1.4 2.56721 -44.3835 -58.6668
3471 -4.00282 17.4529 1.4 3.01345 -48.5854 111.645
3472 -3.50282 17.4529 1.4 3.47437 -44.8701 -152.63
3473 -3.00282 17.4529 1.4 3.94482 -45.4791 -138.767
3474 -2.50282 17.4529 1.4 4.42176 -49.7856 -116.618
3475 -2.00282 17.4529 1.4 4.9033 -51.8029 -103.137
3476 -1.50282 17.4529 1.4 5.3882 -59.6193 -64.4121
3477 -1.00282 17.4529 1.4 5.87563 -60.4831 -71.1672
3478 -0.50282 17.4529 1.4 6.36501 -83.9391 99.6184
3479 -0.00282 17.4529 1.4 6.85593 -57.8634 177.245
3480 0.49718 17.4529 1.4 7.34807 -57.2356 156.417
3481 0.99718 17.4529 1.4 7.8412 -55.8128 168.718
3482 1.49718 17.4529 1.4 8.33516 -54.4387 171.264
3483 1.99718 17.4529 1.4 8.82979 -58.2469 -164.574
3484 2.49718 17.4529 1.4 9.325 -58.8371 119.172
3485 2.99718 17.4529 1.4 9.82069 -59.9777 96.484
3486 3.49718 17.4529 1.4 10.3168 -250 0
3487 3.99718 17.4529 1.4 10.8133 -250 0
3488 4.49718 17.4529 1.4 11.31 -250 0
3489 4.99718 17.4529 1.4 11.8071 -250 0
3490 5.49718 17.4529 1.4 12.3044 -250 0
3491 5.99718 17.4529 1.4 12.8019 -250 0
3492 6.49718 17.4529 1.4 13.2996 -250 0
3493 6.99718 17.4529 1.4 13.7974 -63.2276 114.256
3494 7.49718 17.4529 1.4 14.2954 -65.075 63.3383
3495 7.99718 17.4529 1.4 14.7936 -65.0011 29.8324
3496 8.49718 17.4529 1.4 15.2918 -62.7455 -24.919
3497 8.99718 17.4529 1.4 15.7902 -64.0386 -16.8795
3498 9.49718 17.4529 1.4 16.2887 -64.9306 -53.4533
3499 9.99718 17.4529 1.4 16.7872 -71.1289 -93.4101
3500 10.4972 17.4529 1.4 17.2859 -78.1209 87.343
3501 10.9972 17.4529 1.4 17.7846 -69.2254 -112.82
3502 11.4972 17.4529 1.4 18.2834 -77.9366 -157.546
3503 11.9972 17.4529 1.4 18.7822 -89.6519 -3.13271
3504 12.4972 17.4529 1.4 19.2811 -94.1824 161.513
3505 12.9972 17.4529 1.4 19.7801 -84.4151 95.5653
3506 13.4972 17.4529 1.4 20.2791 -88.7047 94.4801
3507 13.9972 17.4529 1.4 20.7782 -250 0
3508 14.4972 17.4529 1.4 21.2773 -250 0
3509 14.9972 17.4529 1.4 21.7765 -92.824 36.4825
3510 15.4972 17.4529 1.4 22.2757 -91.4762 -127.59
3511 15.9972 17.4529 1.4 22.7749 -84.1921 29.2863
3512 16.4972 17.4529 1.4 23.2741 -78.0478 54.017
3513 16.9972 17.4529 1.4 23.7734 -77.3864 -7.18329
3514 17.4972 17.4529 1.4 24.2727 -250 0
3515 17.9972 17.4529 1.4 24.7721 -250 0
3516 18.4972 17.4529 1.4 25.2715 -250 0
3517 18.9972 17.4529 1.4 25.7709 -250 0
3518 19.4972 17.4529 1.4 26.2703 -250 0
3519 19.9972 17.4529 1.4 26.7697 -250 0
3520 20.4972 17.4529 1.4 27.2692 -250 0
3521 20.9972 17.4529 1.4 27.7687 -84.7369 -148.524
3522 21.4972 17.4529 1.4 28.2682 -85.504 10.3688
3523 21.9972 17.4529 1.4 28.7677 -250 0
3524 22.4972 17.4529 1.4 29.2672 -96.39 -87.6369
3525 22.9972 17.4529 1.4 29.7668 -92.4593 -151.809
3526 23.4972 17.4529 1.4 30.2663 -92.0068 -88.5831
3527 23.9972 17.4529 1.4 30.7659 -94.1559 -116.526
3528 24.4972 17.4529 1.4 31.2655 -106.656 -67.7773
3529 24.9972 17.4529 1.4 31.7651 -87.5075 -43.8583
3530 25.4972 17.4529 1.4 32.2647 -93.9801 4.21886
3531 25.9972 17.4529 1.4 32.7643 -86.7574 -73.7904
3532 26.4972 17.4529 1.4 33.264 -96.6852 131.109
3533 26.9972 17.4529 1.4 33.7636 -94.0329 80.3738
3534 27.4972 17.4529 1.4 34.2633 -93.5058 -50.8571
3535 27.9972 17.4529 1.4 34.763 -92.8948 -159.291
3536 28.4972 17.4529 1.4 35.2626 -250 0
3537 28.9972 17.4529 1.4 35.7623 -250 0
3538 29.4972 17.4529 1.4 36.262 -250 0
3539 29.9972 17.4529 1.4 36.7617 -250 0
3540 30.4972 17.4529 1.4 37.2614 -250 0
3541 -28.0028 17.9529 1.4 21.3318 -77.5755 20.627
3542 -27.5028 17.9529 1.4 20.8336 -69.8463 -165.385
3543 -27.0028 17.9529 1.4 20.3354 -79.0888 -20.7363
3544 -26.5028 17.9529 1.4 19.8373 -83.9517 140.377
3545 -26.0028 17.9529 1.4 19.3393 -93.5724 -165.988
3546 -25.5028 17.9529 1.4 18.8414 -96.0454 -52.749
3547 -25.0028 17.9529 1.4 18.3436 -98.9963 58.3852
3548 -24.5028 17.9529 1.4 17.846 -250 0
3549 -24.0028 17.9529 1.4 17.3485 -93.6428 105.771
3550 -23.5028 17.9529 1.4 16.8511 -76.0719 119.412
3551 -23.0028 17.9529 1.4 16.3539 -94.014 -126.068
3552 -22.5028 17.9529 1.4 15.8569 -76.5064 142.422
3553 -22.0028 17.9529 1.4 15.3601 -80.8051 170.985
3554 -21.5028 17.9529 1.4 14.8634 -98.6048 26.1818
3555 -21.0028 17.9529 1.4 14.3671 -97.6725 -12.8012
3556 -20.5028 17.9529 1.4 13.8709 -63.0451 -82.357
3557 -20.0028 17.9529 1.4 13.3751 -61.5997 -47.0234
3558 -19.5028 17.9529 1.4 12.8796 -60.6893 -33.5263
3559 -19.0028 17.9529 1.4 12.3844 -57.6829 -29.4157
3560 -18.5028 17.9529 1.4 11.8897 -61.8519 -21.7394
3561 -18.0028 17.9529 1.4 11.3954 -61.6166 -88.5511
3562 -17.5028 17.9529 1.4 10.9016 -60.6139 99.727
3563 -17.0028 17.9529 1.4 10.4084 -250 0
3564 -16.5028 17.9529 1.4 9.91592 -250 0
3565 -16.0028 17.9529 1.4 9.42422 -250 0
3566 -15.5028 17.9529 1.4 8.93343 -250 0
3567 -15.0028 17.9529 1.4 8.44373 -250 0
3568 -14.5028 17.9529 1.4 7.95531 -250 0
3569 -14.0028 17.9529 1.4 7.46842 -250 0
3570 -13.5028 17.9529 1.4 6.98338 -62.4076 95.4755
3571 -13.0028 17.9529 1.4 6.50061 -49.8993 121.846
3572 -12.5028 17.9529 1.4 6.02066 -51.2343 127.214
3573 -12.0028 17.9529 1.4 5.54425 -54.4492 115.924
3574 -11.5028 17.9529 1.4 5.07238 -56.1772 80.6252
3575 -11.0028 17.9529 1.4 4.60645 -53.7617 -2.62839
3576 -10.5028 17.9529 1.4 4.14847 -48.8205 -70.3427
3577 -10.0028 17.9529 1.4 3.70137 -48.8528 -104.099
3578 -9.50282 17.9529 1.4 3.26963 -44.0912 31.6382
3579 -9.00282 17.9529 1.4 2.86022 -48.3998 -162.636
3580 -8.50282 17.9529 1.4 2.48419 -48.9751 -65.077
3581 -8.00282 17.9529 1.4 2.15907 -51.9941 153.357
3582 -7.50282 17.9529 1.4 1.911 -56.3209 129.02
3583 -7.00282 17.9529 1.4 1.77265 -250 0
3584 -6.50282 17.9529 1.4 1.76993 -250 0
3585 -6.00282 17.9529 1.4 1.90342 -250 0
3586 -5.50282 17.9529 1.4 2.14787 -250 0
3587 -5.00282 17.9529 1.4 2.47057 -250 0
3588 -4.50282 17.9529 1.4 2.84501 -250 0
3589 -4.00282 17.9529 1.4 3.25337 -250 0
3590 -3.50282 17.9529 1.4 3.6844 -60.2016 88.7709
3591 -3.00282 17.9529 1.4 4.131 -49.1457 39.2843
3592 -2.50282 17.9529 1.4 4.58863 -49.7737 71.4136
3593 -2.00282 17.9529 1.4 5.05429 -55.2638 166.737
3594 -1.50282 17.9529 1.4 5.52596 -54.6968 -140.43
3595 -1.00282 17.9529 1.4 6.00221 -50.5792 -109.369
3596 -0.50282 17.9529 1.4 6.48205 -51.6115 -116.033
3597 -0.00282 17.9529 1.4 6.96472 -50.8087 -124.854
3598 0.49718 17.9529 1.4 7.44967 -54.2284 -135.596
3599 0.99718 17.9529 1.4 7.9365 -56.0523 -160.427
3600 1.49718 17.9529 1.4 8.42487 -54.5816 176.247
3601 1.99718 17.9529 1.4 8.91452 -62.5553 105.076
3602 2.49718 17.9529 1.4 9.40527 -60.6447 126.765
3603 2.99718 17.9529 1.4 9.89694 -55.2817 127.401
3604 3.49718 17.9529 1.4 10.3894 -250 0
3605 3.99718 17.9529 1.4 10.8826 -250 0
3606 4.49718 17.9529 1.4 11.3763 -250 0
3607 4.99718 17.9529 1.4 11.8706 -250 0
3608 5.49718 17.9529 1.4 12.3653 -250 0
3609 5.99718 17.9529 1.4 12.8605 -250 0
3610 6.49718 17.9529 1.4 13.356 -250 0
3611 6.99718 17.9529 1.4 13.8518 -70.2093 65.6262
3612 7.49718 17.9529 1.4 14.3479 -70.9796 -38.0227
3613 7.99718 17.9529 1.4 14.8443 -70.722 166.809
3614 8.49718 17.9529 1.4 15.3409 -62.749 -159.659
3615 8.99718 17.9529 1.4 15.8377 -62.2503 -168.553
3616 9.49718 17.9529 1.4 16.3348 -63.9008 179.589
3617 9.99718 17.9529 1.4 16.8319 -69.9969 -178.996
3618 10.4972 17.9529 1.4 17.3293 -250 0
3619 10.9972 17.9529 1.4 17.8268 -77.6105 -137.906
3620 11.4972 17.9529 1.4 18.3245 -73.8771 70.6009
3621 11.9972 17.9529 1.4 18.8222 -72.4228 -119.977
3622 12.4972 17.9529 1.4 19.3201 -95.5334 3.25279
3623 12.9972 17.9529 1.4 19.8181 -88.4105 24.1711
3624 13.4972 17.9529 1.4 20.3162 -250 0
3625 13.9972 17.9529 1.4 20.8144 -250 0
3626 14.4972 17.9529 1.4 21.3126 -250 0
3627 14.9972 17.9529 1.4 21.811 -250 0
3628 15.4972 17.9529 1.4 22.3094 -93.8105 124.898
3629 15.9972 17.9529 1.4 22.8079 -85.5118 71.8957
3630 16.4972 17.9529 1.4 23.3064 -84.2396 1.87885
3631 16.9972 17.9529 1.4 23.805 -80.3133 -116.828
3632 17.4972 17.9529 1.4 24.3037 -250 0
3633 17.9972 17.9529 1.4 24.8024 -250 0
3634 18.4972 17.9529 1.4 25.3012 -250 0
3635 18.9972 17.9529 1.4 25.8 -250 0
3636 19.4972 17.9529 1.4 26.2989 -250 0
3637 19.9972 17.9529 1.4 26.7978 -250 0
3638 20.4972 17.9529 1.4 27.2967 -250 0
3639 20.9972 17.9529 1.4 27.7957 -102.029 -119.053
3640 21.4972 17.9529 1.4 28.2947 -83.8784 -14.7732
3641 21.9972 17.9529 1.4 28.7938 -79.5729 126.885
3642 22.4972 17.9529 1.4 29.2929 -83.8281 170.512
3643 22.9972 17.9529 1.4 29.792 -250 0
3644 23.4972 17.9529 1.4 30.2912 -250 0
3645 23.9972 17.9529 1.4 30.7903 -250 0
3646 24.4972 17.9529 1.4 31.2895 -250 0
3647 24.9972 17.9529 1.4 31.7888 -250 0
3648 25.4972 17.9529 1.4 32.288 -250 0
3649 25.9972 17.9529 1.4 32.7873 -106.883 -48.1889
3650 26.4972 17.9529 1.4 33.2866 -84.5738 -38.3793
3651 26.9972 17.9529 1.4 33.7859 -94.2393 137.347
3652 27.4972 17.9529 1.4 34.2852 -88.8732 8.23491
3653 27.9972 17.9529 1.4 34.7846 -89.4769 0.0435486
3654 28.4972 17.9529 1.4 35.284 -89.2494 19.5662
3655 28.9972 17.9529 1.4 35.7833 -103.886 46.2943
3656 29.4972 17.9529 1.4 36.2828 -103.997 64.0834
3657 29.9972 17.9529 1.4 36.7822 -104.109 80.7149
3658 30.4972 17.9529 1.4 37.2816 -250 0
3659 -28.0028 18.4529 1.4 21.3787 -75.9057 -33.9537
3660 -27.5028 18.4529 1.4 20.8816 -80.5172 102.474
3661 -27.0028 18.4529 1.4 20.3846 -82.2547 19.9567
3662 -26.5028 18.4529 1.4 19.8877 -94.4223 99.7831
3663 -26.0028 18.4529 1.4 19.391 -90.1003 -108.47
3664 -25.5028 18.4529 1.4 18.8945 -91.8911 13.1229
3665 -25.0028 18.4529 1.4 18.3982 -93.9324 130.206
3666 -24.5028 18.4529 1.4 17.902 -96.3011 -116.386
3667 -24.0028 18.4529 1.4 17.4061 -92.8154 58.4248
3668 -23.5028 18.4529 1.4 16.9105 -102.267 64.7232
3669 -23.0028 18.4529 1.4 16.4151 -101.004 31.7566
3670 -22.5028 18.4529 1.4 15.9199 -79.3947 55.6013
3671 -22.0028 18.4529 1.4 15.4251 -76.6227 -174.252
3672 -21.5028 18.4529 1.4 14.9307 -73.2316 -176.427
3673 -21.0028 18.4529 1.4 14.4366 -80.7038 169.481
3674 -20.5028 18.4529 1.4 13.943 -73.8341 -96.9473
3675 -20.0028 18.4529 1.4 13.4498 -71.8426 -88.5801
3676 -19.5028 18.4529 1.4 12.9571 -70.0961 -174.328
3677 -19.0028 18.4529 1.4 12.465 -61.3837 177.009
3678 -18.5028 18.4529 1.4 11.9736 -62.0091 99.6595
3679 -18.0028 18.4529 1.4 11.4829 -65.2945 -12.6955
3680 -17.5028 18.4529 1.4 10.9931 -72.9536 3.74967
3681 -17.0028 18.4529 1.4 10.5042 -250 0
3682 -16.5028 18.4529 1.4 10.0164 -250 0
3683 -16.0028 18.4529 1.4 9.52992 -250 0
3684 -15.5028 18.4529 1.4 9.04487 -250 0
3685 -15.0028 18.4529 1.4 8.56155 -250 0
3686 -14.5028 18.4529 1.4 8.08025 -250 0
3687 -14.0028 18.4529 1.4 7.60137 -250 0
3688 -13.5028 18.4529 1.4 7.12539 -51.6747 137.34
3689 -13.0028 18.4529 1.4 6.65293 -59.2828 145.839
3690 -12.5028 18.4529 1.4 6.18481 -54.7921 3.61954
3691 -12.0028 18.4529 1.4 5.72208 -52.3083 -18.3677
3692 -11.5028 18.4529 1.4 5.26617 -56.0105 -97.1224
3693 -11.0028 18.4529 1.4 4.81902 -52.2883 99.7039
3694 -10.5028 18.4529 1.4 4.3833 -47.8061 0.326425
3695 -10.0028 18.4529 1.4 3.96278 -50.5222 139.557
3696 -9.50282 18.4529 1.4 3.56287 -46.3745 -54.0306
3697 -9.00282 18.4529 1.4 3.1913 -44.3938 -30.1771
3698 -8.50282 18.4529 1.4 2.85915 -45.2361 -66.4572
3699 -8.00282 18.4529 1.4 2.58168 -46.3552 11.8501
3700 -7.50282 18.4529 1.4 2.37812 -52.6691 -28.333
3701 -7.00282 18.4529 1.4 2.26844 -250 0
3702 -6.50282 18.4529 1.4 2.26631 -250 0
3703 -6.00282 18.4529 1.4 2.37203 -250 0
3704 -5.50282 18.4529 1.4 2.57233 -250 0
3705 -5.00282 18.4529 1.4 2.84732 -250 0
3706 -4.50282 18.4529 1.4 3.17767 -250 0
3707 -4.00282 18.4529 1.4 3.54795 -250 0
3708 -3.50282 18.4529 1.4 3.94694 -44.7882 -146.419
3709 -3.00282 18.4529 1.4 4.36677 -49.2017 66.2147
3710 -2.50282 18.4529 1.4 4.80198 -47.5268 138.235
3711 -2.00282 18.4529 1.4 5.24875 -54.3839 104.612
3712 -1.50282 18.4529 1.4 5.70436 -49.1933 77.6924
3713 -1.00282 18.4529 1.4 6.16686 -49.3029 106.638
3714 -0.50282 18.4529 1.4 6.63479 -55.483 121.869
3715 -0.00282 18.4529 1.4 7.1071 -53.1272 162.768
3716 0.49718 18.4529 1.4 7.58295 -56.2446 -138.014
3717 0.99718 18.4529 1.4 8.06173 -53.5602 -92.911
3718 1.49718 18.4529 1.4 8.54294 -51.4741 -121.292
3719 1.99718 18.4529 1.4 9.0262 -51.3737 -120.569
3720 2.49718 18.4529 1.4 9.51118 -50.7691 -121.248
3721 2.99718 18.4529 1.4 9.99765 -51.8226 -129.117
3722 3.49718 18.4529 1.4 10.4854 -250 0
3723 3.99718 18.4529 1.4 10.9742 -250 0
3724 4.49718 18.4529 1.4 11.464 -250 0
3725 4.99718 18.4529 1.4 11.9547 -250 0
3726 5.49718 18.4529 1.4 12.4461 -250 0
3727 5.99718 18.4529 1.4 12.9381 -250 0
3728 6.49718 18.4529 1.4 13.4308 -250 0
3729 6.99718 18.4529 1.4 13.9239 -71.2252 -123.779
3730 7.49718 18.4529 1.4 14.4176 -68.368 -160.797
3731 7.99718 18.4529 1.4 14.9116 -64.3925 19.1085
3732 8.49718 18.4529 1.4 15.4061 -63.2331 27.7601
3733 8.99718 18.4529 1.4 15.9009 -62.1748 38.3735
3734 9.49718 18.4529 1.4 16.396 -68.8832 47.8032
3735 9.99718 18.4529 1.4 16.8914 -68.2808 -26.4186
3736 10.4972 18.4529 1.4 17.387 -88.7794 70.2267
3737 10.9972 18.4529 1.4 17.8829 -84.5787 -49.5353
3738 11.4972 18.4529 1.4 18.379 -75.1307 -12.1165
3739 11.9972 18.4529 1.4 18.8754 -78.763 -158.009
3740 12.4972 18.4529 1.4 19.3719 -68.4511 -21.8465
3741 12.9972 18.4529 1.4 19.8686 -76.0934 159.164
3742 13.4972 18.4529 1.4 20.3654 -93.8996 79.6956
3743 13.9972 18.4529 1.4 20.8624 -250 0
3744 14.4972 18.4529 1.4 21.3596 -250 0
3745 14.9972 18.4529 1.4 21.8568 -88.3357 44.4289
3746 15.4972 18.4529 1.4 22.3542 -87.8522 -51.5053
3747 15.9972 18.4529 1.4 22.8517 -83.3982 -138.098
3748 16.4972 18.4529 1.4 23.3494 -83.251 80.969
3749 16.9972 18.4529 1.4 23.8471 -91.427 105.835
3750 17.4972 18.4529 1.4 24.3449 -250 0
3751 17.9972 18.4529 1.4 24.8428 -250 0
3752 18.4972 18.4529 1.4 25.3408 -250 0
3753 18.9972 18.4529 1.4 25.8388 -250 0
3754 19.4972 18.4529 1.4 26.3369 -250 0
3755 19.9972 18.4529 1.4 26.8351 -250 0
3756 20.4972 18.4529 1.4 27.3334 -250 0
3757 20.9972 18.4529 1.4 27.8317 -100.357 47.1823
3758 21.4972 18.4529 1.4 28.3301 -101.31 116.207
3759 21.9972 18.4529 1.4 28.8286 -87.4331 122.772
3760 22.4972 18.4529 1.4 29.3271 -88.3851 -99.4532
3761 22.9972 18.4529 1.4 29.8256 -87.456 -144.36
3762 23.4972 18.4529 1.4 30.3242 -89.6784 53.8708
3763 23.9972 18.4529 1.4 30.8228 -92.1766 161.927
3764 24.4972 18.4529 1.4 31.3215 -250 0
3765 24.9972 18.4529 1.4 31.8203 -250 0
3766 25.4972 18.4529 1.4 32.319 -250 0
3767 25.9972 18.4529 1.4 32.8178 -91.3577 78.3288
3768 26.4972 18.4529 1.4 33.3167 -93.3738 113.379
3769 26.9972 18.4529 1.4 33.8155 -94.6603 -117.495
3770 27.4972 18.4529 1.4 34.3144 -86.382 -48.6743
3771 27.9972 18.4529 1.4 34.8134 -90.9794 -5.73803
3772 28.4972 18.4529 1.4 35.3123 -87.7847 -11.2594
3773 28.9972 18.4529 1.4 35.8113 -87.512 9.97728
3774 29.4972 18.4529 1.4 36.3104 -87.3272 29.7459
3775 29.9972 18.4529 1.4 36.8094 -89.3956 35.4315
3776 30.4972 18.4529 1.4 37.3085 -89.2226 54.2397
3777 -28.0028 18.9529 1.4 21.4372 -250 0
3778 -27.5028 18.9529 1.4 20.9415 -250 0
3779 -27.0028 18.9529 1.4 20.4459 -250 0
3780 -26.5028 18.9529 1.4 19.9506 -250 0
3781 -26.0028 18.9529 1.4 19.4555 -250 0
3782 -25.5028 18.9529 1.4 18.9606 -250 0
3783 -25.0028 18.9529 1.4 18.4661 -250 0
3784 -24.5028 18.9529 1.4 17.9718 -250 0
3785 -24.0028 18.9529 1.4 17.4779 -102.348 -0.961424
3786 -23.5028 18.9529 1.4 16.9843 -101.14 -38.6346
3787 -23.0028 18.9529 1.4 16.4911 -100.078 -79.9868
3788 -22.5028 18.9529 1.4 15.9984 -100.159 -30.5277
3789 -22.0028 18.9529 1.4 15.5061 -82.5043 137.351
3790 -21.5028 18.9529 1.4 15.0143 -90.3746 -79.807
3791 -21.0028 18.9529 1.4 14.5231 -91.5363 176.257
3792 -20.5028 18.9529 1.4 14.0325 -68.269 124.528
3793 -20.0028 18.9529 1.4 13.5425 -74.7537 109.233
3794 -19.5028 18.9529 1.4 13.0534 -63.6657 5.79583
3795 -19.0028 18.9529 1.4 12.5651 -62.3216 -84.7018
3796 -18.5028 18.9529 1.4 12.0777 -74.6624 -64.5613
3797 -18.0028 18.9529 1.4 11.5914 -78.561 -102.311
3798 -17.5028 18.9529 1.4 11.1064 -71.82 -104.512
3799 -17.0028 18.9529 1.4 10.6227 -250 0
3800 -16.5028 18.9529 1.4 10.1406 -250 0
3801 -16.0028 18.9529 1.4 9.66038 -250 0
3802 -15.5028 18.9529 1.4 9.18222 -250 0
3803 -15.0028 18.9529 1.4 8.70653 -250 0
3804 -14.5028 18.9529 1.4 8.23371 -250 0
3805 -14.0028 18.9529 1.4 7.7643 -250 0
3806 -13.5028 18.9529 1.4 7.29895 -51.6202 -34.1631
3807 -13.0028 18.9529 1.4 6.8385 -58.9423 -76.0277
3808 -12.5028 18.9529 1.4 6.384 -57.3305 166.657
3809 -12.0028 18.9529 1.4 5.93681 -52.0364 48.1452
3810 -11.5028 18.9529 1.4 5.49874 -50.897 -64.8156
3811 -11.0028 18.9529 1.4 5.07213 -52.0575 105.826
3812 -10.5028 18.9529 1.4 4.66013 -49.0685 -64.933
3813 -10.0028 18.9529 1.4 4.26699 -45.2221 25.5754
3814 -9.50282 18.9529 1.4 3.8984 -50.1609 45.8734
3815 -9.00282 18.9529 1.4 3.56201 -45.3072 -1.58275
3816 -8.50282 18.9529 1.4 3.26776 -56.6301 133.725
3817 -8.00282 18.9529 1.4 3.02797 -56.741 164.381
3818 -7.50282 18.9529 1.4 2.85639 -53.7293 -57.6159
3819 -7.00282 18.9529 1.4 2.76574 -250 0
3820 -6.50282 18.9529 1.4 2.764 -250 0
3821 -6.00282 18.9529 1.4 2.85133 -250 0
3822 -5.50282 18.9529 1.4 3.02 -250 0
3823 -5.00282 18.9529 1.4 3.25742 -250 0
3824 -4.50282 18.9529 1.4 3.54981 -250 0
3825 -4.00282 18.9529 1.4 3.88478 -250 0
3826 -3.50282 18.9529 1.4 4.25228 -59.2378 154.83
3827 -3.00282 18.9529 1.4 4.64459 -62.4499 -165.361
3828 -2.50282 18.9529 1.4 5.05594 -46.1251 161.764
3829 -2.00282 18.9529 1.4 5.48205 -52.256 -31.0749
3830 -1.50282 18.9529 1.4 5.91974 -55.3556 103.447
3831 -1.00282 18.9529 1.4 6.3666 -54.722 169.405
3832 -0.50282 18.9529 1.4 6.82085 -63.9943 95.9647
3833 -0.00282 18.9529 1.4 7.2811 -70.0319 -92.7055
3834 0.49718 18.9529 1.4 7.74627 -60.9302 -168.334
3835 0.99718 18.9529 1.4 8.21554 -66.068 136.53
3836 1.49718 18.9529 1.4 8.68824 -58.8599 170.712
3837 1.99718 18.9529 1.4 9.16383 -58.0972 -121.462
3838 2.49718 18.9529 1.4 9.6419 -58.0097 -99.4637
3839 2.99718 18.9529 1.4 10.1221 -57.7333 -95.681
3840 3.49718 18.9529 1.4 10.6041 -250 0
3841 3.99718 18.9529 1.4 11.0877 -250 0
3842 4.49718 18.9529 1.4 11.5727 -250 0
3843 4.99718 18.9529 1.4 12.0589 -250 0
3844 5.49718 18.9529 1.4 12.5462 -250 0
3845 5.99718 18.9529 1.4 13.0345 -250 0
3846 6.49718 18.9529 1.4 13.5236 -250 0
3847 6.99718 18.9529 1.4 14.0135 -250 0
3848 7.49718 18.9529 1.4 14.5041 -74.3067 -87.4783
3849 7.99718 18.9529 1.4 14.9953 -64.9931 -80.6389
3850 8.49718 18.9529 1.4 15.4871 -65.4357 -109.059
3851 8.99718 18.9529 1.4 15.9794 -77.7017 -90.1416
3852 9.49718 18.9529 1.4 16.4721 -74.1314 -68.8447
3853 9.99718 18.9529 1.4 16.9653 -77.3852 -7.6554
3854 10.4972 18.9529 1.4 17.4589 -85.2238 -143.506
3855 10.9972 18.9529 1.4 17.9528 -89.8195 -108.037
3856 11.4972 18.9529 1.4 18.447 -88.5943 -162.164
3857 11.9972 18.9529 1.4 18.9416 -90.5861 -144.848
3858 12.4972 18.9529 1.4 19.4364 -79.8771 -42.21
3859 12.9972 18.9529 1.4 19.9315 -79.8414 123.311
3860 13.4972 18.9529 1.4 20.4268 -74.0681 -72.5991
3861 13.9972 18.9529 1.4 20.9223 -88.5969 -17.1289
3862 14.4972 18.9529 1.4 21.4181 -88.1233 -113.888
3863 14.9972 18.9529 1.4 21.914 -82.9814 142.89
3864 15.4972 18.9529 1.4 22.4102 -83.3079 70.2568
3865 15.9972 18.9529 1.4 22.9065 -81.2128 8.9853
3866 16.4972 18.9529 1.4 23.4029 -250 0
3867 16.9972 18.9529 1.4 23.8995 -250 0
3868 17.4972 18.9529 1.4 24.3962 -250 0
3869 17.9972 18.9529 1.4 24.8931 -250 0
3870 18.4972 18.9529 1.4 25.3901 -250 0
3871 18.9972 18.9529 1.4 25.8872 -250 0
3872 19.4972 18.9529 1.4 26.3844 -250 0
3873 19.9972 18.9529 1.4 26.8818 -250 0
3874 20.4972 18.9529 1.4 27.3792 -250 0
3875 20.9972 18.9529 1.4 27.8767 -250 0
3876 21.4972 18.9529 1.4 28.3743 -250 0
3877 21.9972 18.9529 1.4 28.872 -102.565 21.0989
3878 22.4972 18.9529 1.4 29.3697 -110.322 139.207
3879 22.9972 18.9529 1.4 29.8676 -112.328 169.232
3880 23.4972 18.9529 1.4 30.3655 -82.4729 -164.997
3881 23.9972 18.9529 1.4 30.8634 -88.1753 -98.7674
3882 24.4972 18.9529 1.4 31.3615 -250 0
3883 24.9972 18.9529 1.4 31.8596 -92.7026 -85.8702
3884 25.4972 18.9529 1.4 32.3577 -95.5269 166.294
3885 25.9972 18.9529 1.4 32.8559 -97.3293 52.8825
3886 26.4972 18.9529 1.4 33.3542 -250 0
3887 26.9972 18.9529 1.4 33.8525 -250 0
3888 27.4972 18.9529 1.4 34.3509 -95.7641 -104.805
3889 27.9972 18.9529 1.4 34.8493 -90.6804 159.112
3890 28.4972 18.9529 1.4 35.3478 -82.5673 -72.341
3891 28.9972 18.9529 1.4 35.8463 -97.1231 -24.0759
3892 29.4972 18.9529 1.4 36.3448 -89.658 -40.8433
3893 29.9972 18.9529 1.4 36.8434 -87.8999 1.67243
3894 30.4972 18.9529 1.4 37.342 -87.6206 23.7322
3895 -28.0028 19.4529 1.4 21.5072 -250 0
3896 -27.5028 19.4529 1.4 21.013 -250 0
3897 -27.0028 19.4529 1.4 20.5192 -250 0
3898 -26.5028 19.4529 1.4 20.0257 -250 0
3899 -26.0028 19.4529 1.4 19.5325 -250 0
3900 -25.5028 19.4529 1.4 19.0397 -250 0
3901 -25.0028 19.4529 1.4 18.5472 -250 0
3902 -24.5028 19.4529 1.4 18.0552 -250 0
3903 -24.0028 19.4529 1.4 17.5636 -100.129 -10.3407
3904 -23.5028 19.4529 1.4 17.0725 -100.518 -64.1044
3905 -23.0028 19.4529 1.4 16.582 -100.956 -120.149
3906 -22.5028 19.4529 1.4 16.092 -101.453 -178.574
3907 -22.0028 19.4529 1.4 15.6026 -102.018 120.51
3908 -21.5028 19.4529 1.4 15.114 -86.731 -169.721
3909 -21.0028 19.4529 1.4 14.6261 -94.6611 115.723
3910 -20.5028 19.4529 1.4 14.1391 -66.53 -44.3032
3911 -20.0028 19.4529 1.4 13.653 -65.8846 -151.852
3912 -19.5028 19.4529 1.4 13.1679 -79.3241 -64.9709
3913 -19.0028 19.4529 1.4 12.684 -74.3269 51.2203
3914 -18.5028 19.4529 1.4 12.2014 -74.6038 40.3889
3915 -18.0028 19.4529 1.4 11.7203 -74.8716 28.0874
3916 -17.5028 19.4529 1.4 11.2408 -74.2614 28.5746
3917 -17.0028 19.4529 1.4 10.7632 -250 0
3918 -16.5028 19.4529 1.4 10.2877 -250 0
3919 -16.0028 19.4529 1.4 9.8146 -250 0
3920 -15.5028 19.4529 1.4 9.34434 -250 0
3921 -15.0028 19.4529 1.4 8.87734 -250 0
3922 -14.5028 19.4529 1.4 8.41412 -250 0
3923 -14.0028 19.4529 1.4 7.95537 -250 0
3924 -13.5028 19.4529 1.4 7.50188 -55.4633 85.473
3925 -13.0028 19.4529 1.4 7.05468 -52.6216 4.28035
3926 -12.5028 19.4529 1.4 6.61505 -59.2011 -107.444
3927 -12.0028 19.4529 1.4 6.1846 -51.1851 56.2686
3928 -11.5028 19.4529 1.4 5.76538 -52.9613 -99.2741
3929 -11.0028 19.4529 1.4 5.36004 -48.8133 24.823
3930 -10.5028 19.4529 1.4 4.97196 -50.4392 152.575
3931 -10.0028 19.4529 1.4 4.60551 -53.2796 129.573
3932 -9.50282 19.4529 1.4 4.26627 -54.3627 92.9655
3933 -9.00282 19.4529 1.4 3.96124 -51.2025 -74.2284
3934 -8.50282 19.4529 1.4 3.69889 -56.9164 -26.3566
3935 -8.00282 19.4529 1.4 3.48886 -53.4178 -78.5507
3936 -7.50282 19.4529 1.4 3.34103 -56.1214 12.328
3937 -7.00282 19.4529 1.4 3.26387 -250 0
3938 -6.50282 19.4529 1.4 3.2624 -250 0
3939 -6.00282 19.4529 1.4 3.3367 -250 0
3940 -5.50282 19.4529 1.4 3.48195 -250 0
3941 -5.00282 19.4529 1.4 3.68976 -250 0
3942 -4.50282 19.4529 1.4 3.95027 -250 0
3943 -4.00282 19.4529 1.4 4.25382 -250 0
3944 -3.50282 19.4529 1.4 4.59188 -59.8351 76.8708
3945 -3.00282 19.4529 1.4 4.95739 -71.1488 -62.7222
3946 -2.50282 19.4529 1.4 5.34473 -64.903 -161.933
3947 -2.00282 19.4529 1.4 5.74947 -50.2887 -65.3285
3948 -1.50282 19.4529 1.4 6.16821 -50.2864 115.051
3949 -1.00282 19.4529 1.4 6.59827 -52.7081 -93.6194
3950 -0.50282 19.4529 1.4 7.03758 -56.399 23.7013
3951 -0.00282 19.4529 1.4 7.48451 -73.7062 39.215
3952 0.49718 19.4529 1.4 7.93777 -70.747 -45.2377
3953 0.99718 19.4529 1.4 8.39634 -250 0
3954 1.49718 19.4529 1.4 8.8594 -250 0
3955 1.99718 19.4529 1.4 9.32627 -250 0
3956 2.49718 19.4529 1.4 9.79641 -250 0
3957 2.99718 19.4529 1.4 10.2694 -60.8186 -173.362
3958 3.49718 19.4529 1.4 10.7448 -250 0
3959 3.99718 19.4529 1.4 11.2223 -250 0
3960 4.49718 19.4529 1.4 11.7018 -250 0
3961 4.99718 19.4529 1.4 12.1828 -250 0
3962 5.49718 19.4529 1.4 12.6654 -250 0
3963 5.99718 19.4529 1.4 13.1492 -250 0
3964 6.49718 19.4529 1.4 13.6342 -250 0
3965 6.99718 19.4529 1.4 14.1203 -250 0
3966 7.49718 19.4529 1.4 14.6073 -250 0
3967 7.99718 19.4529 1.4 15.0952 -74.4988 -6.3437
3968 8.49718 19.4529 1.4 15.5838 -65.1576 -4.08864
3969 8.99718 19.4529 1.4 16.0731 -65.5628 -29.3168
3970 9.49718 19.4529 1.4 16.5631 -85.0238 133.214
3971 9.99718 19.4529 1.4 17.0536 -70.6232 -178.299
3972 10.4972 19.4529 1.4 17.5447 -89.5254 -178.904
3973 10.9972 19.4529 1.4 18.0362 -88.3212 126.899
3974 11.4972 19.4529 1.4 18.5283 -87.4417 173.304
3975 11.9972 19.4529 1.4 19.0207 -250 0
3976 12.4972 19.4529 1.4 19.5135 -250 0
3977 12.9972 19.4529 1.4 20.0067 -84.3118 31.5923
3978 13.4972 19.4529 1.4 20.5002 -80.5951 -131.342
3979 13.9972 19.4529 1.4 20.994 -87.8588 81.7803
3980 14.4972 19.4529 1.4 21.4881 -82.6287 13.4452
3981 14.9972 19.4529 1.4 21.9825 -81.8793 13.5996
3982 15.4972 19.4529 1.4 22.4771 -80.6401 -80.7282
3983 15.9972 19.4529 1.4 22.9719 -250 0
3984 16.4972 19.4529 1.4 23.467 -250 0
3985 16.9972 19.4529 1.4 23.9623 -250 0
3986 17.4972 19.4529 1.4 24.4577 -250 0
3987 17.9972 19.4529 1.4 24.9534 -250 0
3988 18.4972 19.4529 1.4 25.4492 -250 0
3989 18.9972 19.4529 1.4 25.9452 -250 0
3990 19.4972 19.4529 1.4 26.4413 -250 0
3991 19.9972 19.4529 1.4 26.9376 -250 0
3992 20.4972 19.4529 1.4 27.434 -250 0
3993 20.9972 19.4529 1.4 27.9305 -250 0
3994 21.4972 19.4529 1.4 28.4272 -250 0
3995 21.9972 19.4529 1.4 28.9239 -250 0
3996 22.4972 19.4529 1.4 29.4208 -102.819 91.2114
3997 22.9972 19.4529 1.4 29.9178 -121.276 -125.382
3998 23.4972 19.4529 1.4 30.4149 -85.912 -65.9397
3999 23.9972 19.4529 1.4 30.9121 -83.1778 11.0699
4000 24.4972 19.4529 1.4 31.4093 -83.3569 152.925
4001 24.9972 19.4529 1.4 31.9067 -95.5088 74.951
4002 25.4972 19.4529 1.4 32.4041 -102.264 -164.995
4003 25.9972 19.4529 1.4 32.9016 -250 0
4004 26.4972 19.4529 1.4 33.3992 -250 0
4005 26.9972 19.4529 1.4 33.8969 -250 0
4006 27.4972 19.4529 1.4 34.3946 -250 0
4007 27.9972 19.4529 1.4 34.8924 -250 0
4008 28.4972 19.4529 1.4 35.3902 -99.4217 -124.529
4009 28.9972 19.4529 1.4 35.8881 -91.62 99.092
4010 29.4972 19.4529 1.4 36.3861 -87.3302 -119.852
4011 29.9972 19.4529 1.4 36.8841 -91.3296 -76.4265
4012 30.4972 19.4529 1.4 37.3822 -92.7798 -44.8944
4013 -28.0028 19.9529 1.4 21.5885 -250 0
4014 -27.5028 19.9529 1.4 21.0962 -250 0
4015 -27.0028 19.9529 1.4 20.6044 -250 0
4016 -26.5028 19.9529 1.4 20.113 -250 0
4017 -26.0028 19.9529 1.4 19.622 -250 0
4018 -25.5028 19.9529 1.4 19.1315 -250 0
4019 -25.0028 19.9529 1.4 18.6414 -250 0
4020 -24.5028 19.9529 1.4 18.152 -250 0
4021 -24.0028 19.9529 1.4 17.6631 -101.329 -156.799
4022 -23.5028 19.9529 1.4 17.1748 -101.84 143.381
4023 -23.0028 19.9529 1.4 16.6873 -102.422 81.0939
4024 -22.5028 19.9529 1.4 16.2005 -250 0
4025 -22.0028 19.9529 1.4 15.7145 -250 0
4026 -21.5028 19.9529 1.4 15.2294 -250 0
4027 -21.0028 19.9529 1.4 14.7454 -87.2245 -103.925
4028 -20.5028 19.9529 1.4 14.2624 -65.8726 27.4189
4029 -20.0028 19.9529 1.4 13.7807 -79.4664 6.81243
4030 -19.5028 19.9529 1.4 13.3003 -250 0
4031 -19.0028 19.9529 1.4 12.8214 -250 0
4032 -18.5028 19.9529 1.4 12.3442 -250 0
4033 -18.0028 19.9529 1.4 11.8688 -250 0
4034 -17.5028 19.9529 1.4 11.3956 -250 0
4035 -17.0028 19.9529 1.4 10.9247 -250 0
4036 -16.5028 19.9529 1.4 10.4566 -250 0
4037 -16.0028 19.9529 1.4 9.99149 -250 0
4038 -15.5028 19.9529 1.4 9.52997 -250 0
4039 -15.0028 19.9529 1.4 9.07252 -250 0
4040 -14.5028 19.9529 1.4 8.6198 -250 0
4041 -14.0028 19.9529 1.4 8.1726 -250 0
4042 -13.5028 19.9529 1.4 7.73187 -59.1801 137.877
4043 -13.0028 19.9529 1.4 7.29877 -52.0224 20.9487
4044 -12.5028 19.9529 1.4 6.87477 -55.5419 -149.127
4045 -12.0028 19.9529 1.4 6.46164 -51.5646 -0.835344
4046 -11.5028 19.9529 1.4 6.06161 -51.7173 133.479
4047 -11.0028 19.9529 1.4 5.67746 -51.5436 -136.577
4048 -10.5028 19.9529 1.4 5.31262 -54.1198 -102.329
4049 -10.0028 19.9529 1.4 4.97134 -55.0801 151.022
4050 -9.50282 19.9529 1.4 4.65882 -57.9622 26.1525
4051 -9.00282 19.9529 1.4 4.38121 -59.7128 -153.037
4052 -8.50282 19.9529 1.4 4.14552 -56.6785 126.525
4053 -8.00282 19.9529 1.4 3.95925 -54.0709 -58.1236
4054 -7.50282 19.9529 1.4 3.82963 -63.5093 63.5768
4055 -7.00282 19.9529 1.4 3.7625 -250 0
4056 -6.50282 19.9529 1.4 3.76122 -250 0
4057 -6.00282 19.9529 1.4 3.82585 -250 0
4058 -5.50282 19.9529 1.4 3.95316 -250 0
4059 -5.00282 19.9529 1.4 4.13737 -250 0
4060 -4.50282 19.9529 1.4 4.37129 -250 0
4061 -4.00282 19.9529 1.4 4.64742 -250 0
4062 -3.50282 19.9529 1.4 4.95872 -72.5875 -7.31602
4063 -3.00282 19.9529 1.4 5.29899 -68.5549 -17.803
4064 -2.50282 19.9529 1.4 5.663 -66.3907 163.833
4065 -2.00282 19.9529 1.4 6.04649 -75.8177 -75.9031
4066 -1.50282 19.9529 1.4 6.44596 -52.1054 43.4193
4067 -1.00282 19.9529 1.4 6.85862 -54.6936 -108.519
4068 -0.50282 19.9529 1.4 7.28224 -51.3857 58.9188
4069 -0.00282 19.9529 1.4 7.71501 -70.9918 -72.4104
4070 0.49718 19.9529 1.4 8.15548 -250 0
4071 0.99718 19.9529 1.4 8.60245 -250 0
4072 1.49718 19.9529 1.4 9.05497 -250 0
4073 1.99718 19.9529 1.4 9.51225 -250 0
4074 2.49718 19.9529 1.4 9.97363 -250 0
4075 2.99718 19.9529 1.4 10.4386 -250 0
4076 3.49718 19.9529 1.4 10.9066 -250 0
4077 3.99718 19.9529 1.4 11.3774 -250 0
4078 4.49718 19.9529 1.4 11.8505 -250 0
4079 4.99718 19.9529 1.4 12.3258 -250 0
4080 5.49718 19.9529 1.4 12.8029 -250 0
4081 5.99718 19.9529 1.4 13.2818 -250 0
4082 6.49718 19.9529 1.4 13.7621 -250 0
4083 6.99718 19.9529 1.4 14.2438 -250 0
4084 7.49718 19.9529 1.4 14.7267 -250 0
4085 7.99718 19.9529 1.4 15.2108 -250 0
4086 8.49718 19.9529 1.4 15.6958 -74.9508 74.3699
4087 8.99718 19.9529 1.4 16.1817 -65.4553 72.2848
4088 9.49718 19.9529 1.4 16.6685 -65.8236 49.7914
4089 9.99718 19.9529 1.4 17.156 -83.555 -139.831
4090 10.4972 19.9529 1.4 17.6442 -88.0441 55.8921
4091 10.9972 19.9529 1.4 18.1331 -87.084 103.036
4092 11.4972 19.9529 1.4 18.6226 -250 0
4093 11.9972 19.9529 1.4 19.1126 -250 0
4094 12.4972 19.9529 1.4 19.6031 -250 0
4095 12.9972 19.9529 1.4 20.094 -250 0
4096 13.4972 19.9529 1.4 20.5855 -92.3091 -146.177
4097 13.9972 19.9529 1.4 21.0773 -250 0
4098 14.4972 19.9529 1.4 21.5695 -81.2284 -74.5535
4099 14.9972 19.9529 1.4 22.062 -90.9397 4.61375
4100 15.4972 19.9529 1.4 22.5549 -250 0
4101 15.9972 19.9529 1.4 23.0481 -250 0
4102 16.4972 19.9529 1.4 23.5415 -250 0
4103 16.9972 19.9529 1.4 24.0353 -250 0
4104 17.4972 19.9529 1.4 24.5292 -250 0
4105 17.9972 19.9529 1.4 25.0235 -250 0
4106 18.4972 19.9529 1.4 25.5179 -250 0
4107 18.9972 19.9529 1.4 26.0126 -250 0
4108 19.4972 19.9529 1.4 26.5075 -250 0
4109 19.9972 19.9529 1.4 27.0025 -250 0
4110 20.4972 19.9529 1.4 27.4977 -250 0
4111 20.9972 19.9529 1.4 27.9932 -250 0
4112 21.4972 19.9529 1.4 28.4887 -250 0
4113 21.9972 19.9529 1.4 28.9844 -250 0
4114 22.4972 19.9529 1.4 29.4803 -250 0
4115 22.9972 19.9529 1.4 29.9763 -103.064 161.345
4116 23.4972 19.9529 1.4 30.4724 -117.406 87.0824
4117 23.9972 19.9529 1.4 30.9687 -86.2378 15.4255
4118 24.4972 19.9529 1.4 31.465 -95.4825 -17.0209
4119 24.9972 19.9529 1.4 31.9615 -102.05 124.363
4120 25.4972 19.9529 1.4 32.4581 -250 0
4121 25.9972 19.9529 1.4 32.9548 -250 0
4122 26.4972 19.9529 1.4 33.4516 -250 0
4123 26.9972 19.9529 1.4 33.9485 -250 0
4124 27.4972 19.9529 1.4 34.4455 -250 0
4125 27.9972 19.9529 1.4 34.9425 -250 0
4126 28.4972 19.9529 1.4 35.4397 -250 0
4127 28.9972 19.9529 1.4 35.9369 -250 0
4128 29.4972 19.9529 1.4 36.4342 -99.5821 -164.769
4129 29.9972 19.9529 1.4 36.9316 -89.7063 37.235
4130 30.4972 19.9529 1.4 37.429 -87.9737 -174.697
4131 -28.0028 20.4529 1.4 21.681 -250 0
4132 -27.5028 20.4529 1.4 21.1909 -250 0
4133 -27.0028 20.4529 1.4 20.7013 -250 0
4134 -26.5028 20.4529 1.4 20.2123 -250 0
4135 -26.0028 20.4529 1.4 19.7237 -250 0
4136 -25.5028 20.4529 1.4 19.2358 -250 0
4137 -25.0028 20.4529 1.4 18.7485 -250 0
4138 -24.5028 20.4529 1.4 18.2619 -250 0
4139 -24.0028 20.4529 1.4 17.776 -102.827 40.3141
4140 -23.5028 20.4529 1.4 17.291 -250 0
4141 -23.0028 20.4529 1.4 16.8068 -250 0
4142 -22.5028 20.4529 1.4 16.3236 -250 0
4143 -22.0028 20.4529 1.4 15.8414 -250 0
4144 -21.5028 20.4529 1.4 15.3603 -250 0
4145 -21.0028 20.4529 1.4 14.8805 -250 0
4146 -20.5028 20.4529 1.4 14.4021 -79.6129 78.5018
4147 -20.0028 20.4529 1.4 13.9252 -250 0
4148 -19.5028 20.4529 1.4 13.4499 -250 0
4149 -19.0028 20.4529 1.4 12.9766 -250 0
4150 -18.5028 20.4529 1.4 12.5053 -250 0
4151 -18.0028 20.4529 1.4 12.0363 -250 0
4152 -17.5028 20.4529 1.4 11.5699 -250 0
4153 -17.0028 20.4529 1.4 11.1064 -250 0
4154 -16.5028 20.4529 1.4 10.6463 -250 0
4155 -16.0028 20.4529 1.4 10.1899 -250 0
4156 -15.5028 20.4529 1.4 9.73775 -250 0
4157 -15.0028 20.4529 1.4 9.29054 -250 0
4158 -14.5028 20.4529 1.4 8.84899 -250 0
4159 -14.0028 20.4529 1.4 8.41397 -250 0
4160 -13.5028 20.4529 1.4 7.98657 -57.2286 154.797
4161 -13.0028 20.4529 1.4 7.56807 -55.2321 -31.9493
4162 -12.5028 20.4529 1.4 7.16003 -52.581 108.614
4163 -12.0028 20.4529 1.4 6.76434 -53.4614 -134.953
4164 -11.5028 20.4529 1.4 6.38331 -52.7031 -57.7503
4165 -11.0028 20.4529 1.4 6.01972 -51.9778 -30.9071
4166 -10.5028 20.4529 1.4 5.67692 -57.0528 -59.3997
4167 -10.0028 20.4529 1.4 5.3589 -49.553 84.9049
4168 -9.50282 20.4529 1.4 5.07032 -58.2016 -141.666
4169 -9.00282 20.4529 1.4 4.81648 -59.2137 -83.592
4170 -8.50282 20.4529 1.4 4.60314 -66.814 159.94
4171 -8.00282 20.4529 1.4 4.43613 -61.2568 -71.4974
4172 -7.50282 20.4529 1.4 4.32083 -67.6617 110.055
4173 -7.00282 20.4529 1.4 4.26145 -250 0
4174 -6.50282 20.4529 1.4 4.26032 -250 0
4175 -6.00282 20.4529 1.4 4.31748 -250 0
4176 -5.50282 20.4529 1.4 4.43069 -250 0
4177 -5.00282 20.4529 1.4 4.5958 -250 0
4178 -4.50282 20.4529 1.4 4.80747 -250 0
4179 -4.00282 20.4529 1.4 5.05985 -250 0
4180 -3.50282 20.4529 1.4 5.34719 -74.1802 -170.23
4181 -3.00282 20.4529 1.4 5.66417 -74.1146 127.45
4182 -2.50282 20.4529 1.4 6.00609 -70.7034 0.84216
4183 -2.00282 20.4529 1.4 6.36895 -74.4275 -168.257
4184 -1.50282 20.4529 1.4 6.74936 -69.3212 -8.96663
4185 -1.00282 20.4529 1.4 7.14452 -71.4734 73.2528
4186 -0.50282 20.4529 1.4 7.55212 -53.9732 7.16767
4187 -0.00282 20.4529 1.4 7.97025 -250 0
4188 0.49718 20.4529 1.4 8.39734 -250 0
4189 0.99718 20.4529 1.4 8.83208 -250 0
4190 1.49718 20.4529 1.4 9.2734 -250 0
4191 1.99718 20.4529 1.4 9.72041 -250 0
4192 2.49718 20.4529 1.4 10.1724 -250 0
4193 2.99718 20.4529 1.4 10.6286 -250 0
4194 3.49718 20.4529 1.4 11.0886 -250 0
4195 3.99718 20.4529 1.4 11.552 -250 0
4196 4.49718 20.4529 1.4 12.0182 -250 0
4197 4.99718 20.4529 1.4 12.4871 -250 0
4198 5.49718 20.4529 1.4 12.9584 -250 0
4199 5.99718 20.4529 1.4 13.4317 -250 0
4200 6.49718 20.4529 1.4 13.9068 -250 0
4201 6.99718 20.4529 1.4 14.3837 -250 0
4202 7.49718 20.4529 1.4 14.862 -250 0
4203 7.99718 20.4529 1.4 15.3418 -250 0
4204 8.49718 20.4529 1.4 15.8228 -81.6344 164.63
4205 8.99718 20.4529 1.4 16.305 -75.6281 154.721
4206 9.49718 20.4529 1.4 16.7881 -65.8685 148.302
4207 9.99718 20.4529 1.4 17.2723 -66.2015 128.214
4208 10.4972 20.4529 1.4 17.7573 -86.7237 32.8106
4209 10.9972 20.4529 1.4 18.2432 -250 0
4210 11.4972 20.4529 1.4 18.7297 -250 0
4211 11.9972 20.4529 1.4 19.217 -250 0
4212 12.4972 20.4529 1.4 19.7049 -250 0
4213 12.9972 20.4529 1.4 20.1934 -250 0
4214 13.4972 20.4529 1.4 20.6825 -250 0
4215 13.9972 20.4529 1.4 21.172 -80.5871 -163.289
4216 14.4972 20.4529 1.4 21.6621 -250 0
4217 14.9972 20.4529 1.4 22.1526 -250 0
4218 15.4972 20.4529 1.4 22.6435 -250 0
4219 15.9972 20.4529 1.4 23.1347 -250 0
4220 16.4972 20.4529 1.4 23.6264 -250 0
4221 16.9972 20.4529 1.4 24.1184 -250 0
4222 17.4972 20.4529 1.4 24.6107 -250 0
4223 17.9972 20.4529 1.4 25.1033 -250 0
4224 18.4972 20.4529 1.4 25.5963 -250 0
4225 18.9972 20.4529 1.4 26.0894 -250 0
4226 19.4972 20.4529 1.4 26.5829 -250 0
4227 19.9972 20.4529 1.4 27.0765 -250 0
4228 20.4972 20.4529 1.4 27.5704 -250 0
4229 20.9972 20.4529 1.4 28.0646 -250 0
4230 21.4972 20.4529 1.4 28.5589 -250 0
4231 21.9972 20.4529 1.4 29.0534 -250 0
4232 22.4972 20.4529 1.4 29.5481 -250 0
4233 22.9972 20.4529 1.4 30.043 -250 0
4234 23.4972 20.4529 1.4 30.538 -103.301 -128.503
4235 23.9972 20.4529 1.4 31.0332 -100.099 -93.8988
4236 24.4972 20.4529 1.4 31.5286 -101.832 53.7154
4237 24.9972 20.4529 1.4 32.0241 -250 0
4238 25.4972 20.4529 1.4 32.5197 -250 0
4239 25.9972 20.4529 1.4 33.0155 -250 0
4240 26.4972 20.4529 1.4 33.5114 -250 0
4241 26.9972 20.4529 1.4 34.0074 -250 0
4242 27.4972 20.4529 1.4 34.5035 -250 0
4243 27.9972 20.4529 1.4 34.9998 -250 0
4244 28.4972 20.4529 1.4 35.4961 -250 0
4245 28.9972 20.4529 1.4 35.9926 -250 0
4246 29.4972 20.4529 1.4 36.4891 -250 0
4247 29.9972 20.4529 1.4 36.9858 -250 0
4248 30.4972 20.4529 1.4 37.4825 -99.7391 153.781
