#Rx
# X(m), Y(m), Z(m), Distance(m), Power (dBm) Phase (deg)
1 -28.0028 2.95289 1.4 33.5641 -250 0
2 -27.0028 2.95289 1.4 32.5641 -250 0
3 -26.0028 2.95289 1.4 31.5641 -250 0
4 -25.0028 2.95289 1.4 30.5641 -250 0
5 -24.0028 2.95289 1.4 29.5641 -250 0
6 -23.0028 2.95289 1.4 28.5641 -250 0
7 -22.0028 2.95289 1.4 27.5641 -250 0
8 -21.0028 2.95289 1.4 26.5641 -250 0
9 -20.0028 2.95289 1.4 25.5641 -80.1768 -25.6054
10 -19.0028 2.95289 1.4 24.5642 -76.2854 36.0202
11 -18.0028 2.95289 1.4 23.5642 -83.9117 70.014
12 -17.0028 2.95289 1.4 22.5642 -250 0
13 -16.0028 2.95289 1.4 21.5642 -250 0
14 -15.0028 2.95289 1.4 20.5642 -250 0
15 -14.0028 2.95289 1.4 19.5642 -250 0
16 -13.0028 2.95289 1.4 18.5643 -64.8381 -160.59
17 -12.0028 2.95289 1.4 17.5643 -76.6023 -134.929
18 -11.0028 2.95289 1.4 16.5643 -74.5726 65.9568
19 -10.0028 2.95289 1.4 15.5643 -75.1529 -114.701
20 -9.00282 2.95289 1.4 14.5644 -84.2607 -165.437
21 -8.00282 2.95289 1.4 13.5644 -65.4597 101.965
22 -7.00282 2.95289 1.4 12.5645 -63.4198 152.344
23 -6.00282 2.95289 1.4 11.5645 -65.9577 -123.905
24 -5.00282 2.95289 1.4 10.5646 -61.5765 -86.8138
25 -4.00282 2.95289 1.4 9.56465 -63.5244 -19.6822
26 -3.00282 2.95289 1.4 8.56474 -57.7991 -162.058
27 -2.00282 2.95289 1.4 7.56486 -54.1505 -177.821
28 -1.00282 2.95289 1.4 6.56502 -65.7598 -78.2942
29 -0.00282 2.95289 1.4 5.56523 -52.6297 -14.0993
30 0.99718 2.95289 1.4 4.56553 -46.9561 158.43
31 1.99718 2.95289 1.4 3.566 -42.4296 -161.946
32 2.99718 2.95289 1.4 2.56683 -47.223 -70.9581
33 3.99718 2.95289 1.4 1.56874 -43.4542 45.7459
34 4.99718 2.95289 1.4 0.577276 -31.18 101.043
35 5.99718 2.95289 1.4 0.453377 -27.7304 100.349
36 6.99718 2.95289 1.4 1.44148 -35.0393 31.4784
37 7.99718 2.95289 1.4 2.43929 -43.9076 -59.2241
38 8.99718 2.95289 1.4 3.43838 -42.7646 -87.3694
39 9.99718 2.95289 1.4 4.43788 -56.5627 155.42
40 10.9972 2.95289 1.4 5.43756 -59.3023 53.3431
41 11.9972 2.95289 1.4 6.43734 -48.3896 26.863
42 12.9972 2.95289 1.4 7.43718 -53.5901 28.3809
43 13.9972 2.95289 1.4 8.43706 -56.5669 157.701
44 14.9972 2.95289 1.4 9.43696 -69.5158 9.15347
45 15.9972 2.95289 1.4 10.4369 -57.5683 -8.94578
46 16.9972 2.95289 1.4 11.4368 -58.0488 16.3527
47 17.9972 2.95289 1.4 12.4368 -65.6747 132.919
48 18.9972 2.95289 1.4 13.4367 -64.5 64.1024
49 19.9972 2.95289 1.4 14.4367 -70.2576 108.57
50 20.9972 2.95289 1.4 15.4366 -71.2621 -139.535
51 21.9972 2.95289 1.4 16.4366 -60.5345 -12.8478
52 22.9972 2.95289 1.4 17.4366 -67.1855 129.634
53 23.9972 2.95289 1.4 18.4366 -61.7623 53.5248
54 24.9972 2.95289 1.4 19.4365 -66.9767 -128.132
55 25.9972 2.95289 1.4 20.4365 -67.2166 -79.1835
56 26.9972 2.95289 1.4 21.4365 -76.78 8.87938
57 27.9972 2.95289 1.4 22.4365 -250 0
58 28.9972 2.95289 1.4 23.4365 -250 0
59 29.9972 2.95289 1.4 24.4365 -250 0
60 -28.0028 3.95289 1.4 33.5827 -250 0
61 -27.0028 3.95289 1.4 32.5832 -250 0
62 -26.0028 3.95289 1.4 31.5838 -250 0
63 -25.0028 3.95289 1.4 30.5845 -250 0
64 -24.0028 3.95289 1.4 29.5852 -250 0
65 -23.0028 3.95289 1.4 28.5859 -250 0
66 -22.0028 3.95289 1.4 27.5867 -250 0
67 -21.0028 3.95289 1.4 26.5876 -250 0
68 -20.0028 3.95289 1.4 25.5885 -89.7163 -71.7716
69 -19.0028 3.95289 1.4 24.5895 -78.8286 -82.0785
70 -18.0028 3.95289 1.4 23.5906 -84.4769 -102.676
71 -17.0028 3.95289 1.4 22.5918 -250 0
72 -16.0028 3.95289 1.4 21.5931 -250 0
73 -15.0028 3.95289 1.4 20.5945 -250 0
74 -14.0028 3.95289 1.4 19.5961 -250 0
75 -13.0028 3.95289 1.4 18.5978 -61.6237 -69.3205
76 -12.0028 3.95289 1.4 17.5998 -58.002 2.76207
77 -11.0028 3.95289 1.4 16.6019 -62.7047 60.9538
78 -10.0028 3.95289 1.4 15.6044 -62.2252 139.597
79 -9.00282 3.95289 1.4 14.6071 -65.237 -148.198
80 -8.00282 3.95289 1.4 13.6103 -64.8373 -41.4439
81 -7.00282 3.95289 1.4 12.614 -60.9038 6.31482
82 -6.00282 3.95289 1.4 11.6183 -59.6413 61.4506
83 -5.00282 3.95289 1.4 10.6235 -58.4256 150.318
84 -4.00282 3.95289 1.4 9.62965 -56.9909 -162.406
85 -3.00282 3.95289 1.4 8.63727 -57.4044 -29.8977
86 -2.00282 3.95289 1.4 7.64687 -52.0318 2.55375
87 -1.00282 3.95289 1.4 6.65935 -55.3915 42.9796
88 -0.00282 3.95289 1.4 5.6762 -55.4164 94.067
89 0.99718 3.95289 1.4 4.70017 -57.359 62.3862
90 1.99718 3.95289 1.4 3.73683 -49.9693 16.9474
91 2.99718 3.95289 1.4 2.79932 -45.2113 -30.1018
92 3.99718 3.95289 1.4 1.92575 -43.4668 57.3734
93 4.99718 3.95289 1.4 1.2573 -39.3287 -111.61
94 5.99718 3.95289 1.4 1.20545 -37.6207 37.3589
95 6.99718 3.95289 1.4 1.82357 -38.962 11.0768
96 7.99718 3.95289 1.4 2.68286 -43.2362 -10.5741
97 8.99718 3.95289 1.4 3.61525 -53.0716 173.258
98 9.99718 3.95289 1.4 4.57628 -48.7602 80.3549
99 10.9972 3.95289 1.4 5.55109 -46.143 138.152
100 11.9972 3.95289 1.4 6.53352 -47.4015 138.84
101 12.9972 3.95289 1.4 7.52059 -60.6787 115.546
102 13.9972 3.95289 1.4 8.51067 -54.4576 -22.3039
103 14.9972 3.95289 1.4 9.50283 -58.1082 -127.953
104 15.9972 3.95289 1.4 10.4965 -52.9595 -166.274
105 16.9972 3.95289 1.4 11.4912 -61.2005 162.166
106 17.9972 3.95289 1.4 12.4868 -61.7135 35.6311
107 18.9972 3.95289 1.4 13.4831 -59.482 -52.8742
108 19.9972 3.95289 1.4 14.4798 -60.185 -113.433
109 20.9972 3.95289 1.4 15.477 -62.3579 175.308
110 21.9972 3.95289 1.4 16.4745 -63.1069 107.496
111 22.9972 3.95289 1.4 17.4723 -63.9963 38.283
112 23.9972 3.95289 1.4 18.4704 -65.3002 -21.8998
113 24.9972 3.95289 1.4 19.4686 -250 0
114 25.9972 3.95289 1.4 20.467 -82.1074 179.131
115 26.9972 3.95289 1.4 21.4656 -250 0
116 27.9972 3.95289 1.4 22.4643 -250 0
117 28.9972 3.95289 1.4 23.4631 -250 0
118 29.9972 3.95289 1.4 24.462 -250 0
119 -28.0028 4.95289 1.4 33.631 -250 0
120 -27.0028 4.95289 1.4 32.633 -250 0
121 -26.0028 4.95289 1.4 31.6352 -250 0
122 -25.0028 4.95289 1.4 30.6375 -250 0
123 -24.0028 4.95289 1.4 29.64 -250 0
124 -23.0028 4.95289 1.4 28.6427 -250 0
125 -22.0028 4.95289 1.4 27.6455 -250 0
126 -21.0028 4.95289 1.4 26.6486 -250 0
127 -20.0028 4.95289 1.4 25.6519 -90.3524 86.8322
128 -19.0028 4.95289 1.4 24.6555 -96.2947 -38.3685
129 -18.0028 4.95289 1.4 23.6594 -87.049 -71.0399
130 -17.0028 4.95289 1.4 22.6636 -250 0
131 -16.0028 4.95289 1.4 21.6682 -250 0
132 -15.0028 4.95289 1.4 20.6732 -250 0
133 -14.0028 4.95289 1.4 19.6788 -250 0
134 -13.0028 4.95289 1.4 18.6849 -74.3913 157.513
135 -12.0028 4.95289 1.4 17.6918 -57.3427 129.425
136 -11.0028 4.95289 1.4 16.6994 -57.6121 -161.303
137 -10.0028 4.95289 1.4 15.7081 -59.8225 -71.1378
138 -9.00282 4.95289 1.4 14.7179 -57.0558 -47.6676
139 -8.00282 4.95289 1.4 13.7291 -62.1359 -4.96166
140 -7.00282 4.95289 1.4 12.7421 -65.2474 73.7378
141 -6.00282 4.95289 1.4 11.7573 -61.8989 119.435
142 -5.00282 4.95289 1.4 10.7752 -69.4587 153.436
143 -4.00282 4.95289 1.4 9.79682 -80.116 42.4094
144 -3.00282 4.95289 1.4 8.82326 -56.4558 88.972
145 -2.00282 4.95289 1.4 7.85635 -53.9463 84.4601
146 -1.00282 4.95289 1.4 6.89888 -53.4611 58.6875
147 -0.00282 4.95289 1.4 5.95541 -57.6035 -37.867
148 0.99718 4.95289 1.4 5.0338 -54.7855 -119.021
149 1.99718 4.95289 1.4 4.14867 -46.164 -15.8642
150 2.99718 4.95289 1.4 3.32923 -47.5041 -77.1624
151 3.99718 4.95289 1.4 2.63744 -42.3843 111.15
152 4.99718 4.95289 1.4 2.19736 -42.4669 -19.5866
153 5.99718 4.95289 1.4 2.16811 -43.6238 90.9621
154 6.99718 4.95289 1.4 2.56378 -42.4492 -28.1229
155 7.99718 4.95289 1.4 3.23192 -55.3664 129.894
156 8.99718 4.95289 1.4 4.0395 -44.9502 -63.5137
157 9.99718 4.95289 1.4 4.91832 -49.6267 169.502
158 10.9972 4.95289 1.4 5.83628 -48.7137 54.1106
159 11.9972 4.95289 1.4 6.7775 -58.2848 99.4462
160 12.9972 4.95289 1.4 7.73349 -49.1785 104.783
161 13.9972 4.95289 1.4 8.69937 -61.2471 113.026
162 14.9972 4.95289 1.4 9.6722 -80.0325 -169.567
163 15.9972 4.95289 1.4 10.6501 -61.4643 -162.109
164 16.9972 4.95289 1.4 11.6317 -60.005 152.838
165 17.9972 4.95289 1.4 12.6162 -250 0
166 18.9972 4.95289 1.4 13.603 -98.7997 152.664
167 19.9972 4.95289 1.4 14.5915 -91.0302 112.881
168 20.9972 4.95289 1.4 15.5816 -68.9993 -97.5368
169 21.9972 4.95289 1.4 16.5728 -64.6866 -144.445
170 22.9972 4.95289 1.4 17.565 -61.9851 163.863
171 23.9972 4.95289 1.4 18.5581 -62.147 99.8726
172 24.9972 4.95289 1.4 19.5518 -250 0
173 25.9972 4.95289 1.4 20.5462 -250 0
174 26.9972 4.95289 1.4 21.5411 -250 0
175 27.9972 4.95289 1.4 22.5364 -250 0
176 28.9972 4.95289 1.4 23.5322 -250 0
177 29.9972 4.95289 1.4 24.5283 -250 0
178 -28.0028 5.95289 1.4 33.7089 -250 0
179 -27.0028 5.95289 1.4 32.7133 -250 0
180 -26.0028 5.95289 1.4 31.718 -250 0
181 -25.0028 5.95289 1.4 30.7231 -250 0
182 -24.0028 5.95289 1.4 29.7284 -250 0
183 -23.0028 5.95289 1.4 28.7342 -250 0
184 -22.0028 5.95289 1.4 27.7403 -250 0
185 -21.0028 5.95289 1.4 26.7469 -250 0
186 -20.0028 5.95289 1.4 25.754 -93.9053 -36.7899
187 -19.0028 5.95289 1.4 24.7617 -92.9181 9.0904
188 -18.0028 5.95289 1.4 23.77 -82.5832 83.3697
189 -17.0028 5.95289 1.4 22.7791 -250 0
190 -16.0028 5.95289 1.4 21.7889 -250 0
191 -15.0028 5.95289 1.4 20.7998 -250 0
192 -14.0028 5.95289 1.4 19.8117 -250 0
193 -13.0028 5.95289 1.4 18.8248 -74.1792 138.217
194 -12.0028 5.95289 1.4 17.8395 -64.2822 163.064
195 -11.0028 5.95289 1.4 16.8558 -63.6336 -64.2144
196 -10.0028 5.95289 1.4 15.8742 -66.1932 47.0026
197 -9.00282 5.95289 1.4 14.8951 -64.872 77.0816
198 -8.00282 5.95289 1.4 13.9189 -66.3309 95.153
199 -7.00282 5.95289 1.4 12.9464 -61.4921 149.925
200 -6.00282 5.95289 1.4 11.9783 -59.2214 153.987
201 -5.00282 5.95289 1.4 11.016 -64.5777 144.818
202 -4.00282 5.95289 1.4 10.0611 -63.0508 49.5929
203 -3.00282 5.95289 1.4 9.11578 -55.503 -5.96972
204 -2.00282 5.95289 1.4 8.18351 -64.3695 -33.7375
205 -1.00282 5.95289 1.4 7.26926 -53.2285 75.0767
206 -0.00282 5.95289 1.4 6.38079 -55.5639 -177.698
207 0.99718 5.95289 1.4 5.53053 -58.547 -118.648
208 1.99718 5.95289 1.4 4.7391 -49.0128 88.8824
209 2.99718 5.95289 1.4 4.04121 -50.0635 3.0703
210 3.99718 5.95289 1.4 3.49337 -42.6375 99.9162
211 4.99718 5.95289 1.4 3.17426 -43.1803 -4.46367
212 5.99718 5.95289 1.4 3.15408 -44.499 61.3588
213 6.99718 5.95289 1.4 3.4381 -48.5076 -148.434
214 7.99718 5.95289 1.4 3.96142 -49.2548 139.894
215 8.99718 5.95289 1.4 4.64383 -50.1334 -68.7895
216 9.99718 5.95289 1.4 5.42563 -54.211 172.662
217 10.9972 5.95289 1.4 6.26975 -54.8456 59.3177
218 11.9972 5.95289 1.4 7.15416 -45.9292 47.1313
219 12.9972 5.95289 1.4 8.06563 -52.4804 -80.7859
220 13.9972 5.95289 1.4 8.99593 -58.8837 12.3249
221 14.9972 5.95289 1.4 9.93977 -58.2639 80.9133
222 15.9972 5.95289 1.4 10.8936 -250 0
223 16.9972 5.95289 1.4 11.8551 -250 0
224 17.9972 5.95289 1.4 12.8225 -250 0
225 18.9972 5.95289 1.4 13.7945 -250 0
226 19.9972 5.95289 1.4 14.7703 -250 0
227 20.9972 5.95289 1.4 15.7491 -101.316 25.1877
228 21.9972 5.95289 1.4 16.7304 -98.468 -145.399
229 22.9972 5.95289 1.4 17.7138 -79.7445 -171.975
230 23.9972 5.95289 1.4 18.6989 -79.8523 147.102
231 24.9972 5.95289 1.4 19.6856 -250 0
232 25.9972 5.95289 1.4 20.6735 -250 0
233 26.9972 5.95289 1.4 21.6626 -250 0
234 27.9972 5.95289 1.4 22.6526 -250 0
235 28.9972 5.95289 1.4 23.6434 -250 0
236 29.9972 5.95289 1.4 24.635 -250 0
237 -28.0028 6.95289 1.4 33.8162 -250 0
238 -27.0028 6.95289 1.4 32.8239 -250 0
239 -26.0028 6.95289 1.4 31.8321 -250 0
240 -25.0028 6.95289 1.4 30.8408 -250 0
241 -24.0028 6.95289 1.4 29.8501 -250 0
242 -23.0028 6.95289 1.4 28.86 -250 0
243 -22.0028 6.95289 1.4 27.8706 -250 0
244 -21.0028 6.95289 1.4 26.882 -250 0
245 -20.0028 6.95289 1.4 25.8943 -105.427 -113.557
246 -19.0028 6.95289 1.4 24.9076 -92.6512 -81.2223
247 -18.0028 6.95289 1.4 23.922 -99.7943 5.74581
248 -17.0028 6.95289 1.4 22.9376 -250 0
249 -16.0028 6.95289 1.4 21.9546 -250 0
250 -15.0028 6.95289 1.4 20.9733 -250 0
251 -14.0028 6.95289 1.4 19.9937 -250 0
252 -13.0028 6.95289 1.4 19.0164 -65.9068 168.015
253 -12.0028 6.95289 1.4 18.0415 -65.4667 -159.32
254 -11.0028 6.95289 1.4 17.0695 -65.0689 -137.179
255 -10.0028 6.95289 1.4 16.1009 -63.9159 165.922
256 -9.00282 6.95289 1.4 15.1364 -59.8064 -129.75
257 -8.00282 6.95289 1.4 14.1769 -72.7529 96.6179
258 -7.00282 6.95289 1.4 13.2233 -64.3572 49.5958
259 -6.00282 6.95289 1.4 12.2771 -61.8516 -34.7686
260 -5.00282 6.95289 1.4 11.3402 -67.1295 -121.493
261 -4.00282 6.95289 1.4 10.415 -64.5723 110.557
262 -3.00282 6.95289 1.4 9.505 -58.7995 -56.302
263 -2.00282 6.95289 1.4 8.61495 -57.6018 60.0455
264 -1.00282 6.95289 1.4 7.75175 -56.2494 92.1633
265 -0.00282 6.95289 1.4 6.92546 -53.3337 69.5913
266 0.99718 6.95289 1.4 6.15096 -63.6062 -69.4042
267 1.99718 6.95289 1.4 5.45038 -68.3383 -118.684
268 2.99718 6.95289 1.4 4.85581 -55.3421 -159.295
269 3.99718 6.95289 1.4 4.41035 -44.7513 -80.446
270 4.99718 6.95289 1.4 4.16215 -42.6754 -63.1849
271 5.99718 6.95289 1.4 4.14678 -46.1331 -16.7425
272 6.99718 6.95289 1.4 4.36671 -49.4989 30.3423
273 7.99718 6.95289 1.4 4.78962 -56.44 -73.493
274 8.99718 6.95289 1.4 5.36775 -48.3969 -0.986306
275 9.99718 6.95289 1.4 6.05682 -53.0088 145.147
276 10.9972 6.95289 1.4 6.82329 -50.2416 34.9738
277 11.9972 6.95289 1.4 7.64393 -55.0303 131.445
278 12.9972 6.95289 1.4 8.50305 -47.2159 -11.0019
279 13.9972 6.95289 1.4 9.39011 -55.2205 -39.6999
280 14.9972 6.95289 1.4 10.2979 -74.8378 -25.5451
281 15.9972 6.95289 1.4 11.2214 -250 0
282 16.9972 6.95289 1.4 12.1569 -250 0
283 17.9972 6.95289 1.4 13.102 -81.0148 -52.9794
284 18.9972 6.95289 1.4 14.0547 -77.6116 -61.4529
285 19.9972 6.95289 1.4 15.0136 -88.9664 24.7051
286 20.9972 6.95289 1.4 15.9775 -86.8134 47.3431
287 21.9972 6.95289 1.4 16.9456 -80.5452 49.6886
288 22.9972 6.95289 1.4 17.9172 -83.6488 -12.8466
289 23.9972 6.95289 1.4 18.8917 -80.4426 -38.2693
290 24.9972 6.95289 1.4 19.8688 -250 0
291 25.9972 6.95289 1.4 20.8481 -250 0
292 26.9972 6.95289 1.4 21.8292 -250 0
293 27.9972 6.95289 1.4 22.812 -250 0
294 28.9972 6.95289 1.4 23.7962 -250 0
295 29.9972 6.95289 1.4 24.7817 -250 0
296 -28.0028 7.95289 1.4 33.9527 -106.599 -76.9135
297 -27.0028 7.95289 1.4 32.9645 -250 0
298 -26.0028 7.95289 1.4 31.977 -250 0
299 -25.0028 7.95289 1.4 30.9904 -250 0
300 -24.0028 7.95289 1.4 30.0046 -250 0
301 -23.0028 7.95289 1.4 29.0198 -250 0
302 -22.0028 7.95289 1.4 28.036 -250 0
303 -21.0028 7.95289 1.4 27.0535 -250 0
304 -20.0028 7.95289 1.4 26.0723 -95.5034 47.6339
305 -19.0028 7.95289 1.4 25.0925 -91.5912 30.3129
306 -18.0028 7.95289 1.4 24.1145 -84.7025 58.9632
307 -17.0028 7.95289 1.4 23.1383 -250 0
308 -16.0028 7.95289 1.4 22.1642 -250 0
309 -15.0028 7.95289 1.4 21.1926 -250 0
310 -14.0028 7.95289 1.4 20.2237 -250 0
311 -13.0028 7.95289 1.4 19.258 -55.5881 -152.183
312 -12.0028 7.95289 1.4 18.296 -62.2251 -165.467
313 -11.0028 7.95289 1.4 17.3382 -62.8809 137.606
314 -10.0028 7.95289 1.4 16.3856 -63.7855 77.3021
315 -9.00282 7.95289 1.4 15.4389 -64.6 -56.1463
316 -8.00282 7.95289 1.4 14.4993 -60.3823 63.1881
317 -7.00282 7.95289 1.4 13.5685 -63.7323 126.967
318 -6.00282 7.95289 1.4 12.6482 -61.5586 15.1751
319 -5.00282 7.95289 1.4 11.7409 -62.5259 179.114
320 -4.00282 7.95289 1.4 10.8499 -83.0016 -57.2158
321 -3.00282 7.95289 1.4 9.97961 -53.5795 25.2177
322 -2.00282 7.95289 1.4 9.13592 -54.7871 2.19488
323 -1.00282 7.95289 1.4 8.3269 -57.466 -76.5229
324 -0.00282 7.95289 1.4 7.5637 -67.6689 -161.823
325 0.99718 7.95289 1.4 6.86162 -55.9224 -37.7975
326 1.99718 7.95289 1.4 6.24133 -53.6482 -20.1016
327 2.99718 7.95289 1.4 5.72944 -59.4521 26.0792
328 3.99718 7.95289 1.4 5.35712 -56.5976 87.7103
329 4.99718 7.95289 1.4 5.15471 -51.7587 160.304
330 5.99718 7.95289 1.4 5.14231 -50.6587 -50.6104
331 6.99718 7.95289 1.4 5.32125 -50.2758 125.854
332 7.99718 7.95289 1.4 5.67345 -50.4963 129.372
333 8.99718 7.95289 1.4 6.1693 -56.6645 102.901
334 9.99718 7.95289 1.4 6.77736 -57.1112 90.9923
335 10.9972 7.95289 1.4 7.47027 -50.7941 -87.0141
336 11.9972 7.95289 1.4 8.22662 -56.2491 -156.217
337 12.9972 7.95289 1.4 9.03048 -52.6442 -26.2351
338 13.9972 7.95289 1.4 9.87025 -250 0
339 14.9972 7.95289 1.4 10.7375 -250 0
340 15.9972 7.95289 1.4 11.6261 -250 0
341 16.9972 7.95289 1.4 12.5315 -56.7993 -5.50182
342 17.9972 7.95289 1.4 13.4503 -250 0
343 18.9972 7.95289 1.4 14.38 -250 0
344 19.9972 7.95289 1.4 15.3185 -250 0
345 20.9972 7.95289 1.4 16.2643 -85.3219 -96.1261
346 21.9972 7.95289 1.4 17.2163 -67.3294 111.397
347 22.9972 7.95289 1.4 18.1734 -78.9076 1.18854
348 23.9972 7.95289 1.4 19.1349 -82.8954 -25.4996
349 24.9972 7.95289 1.4 20.1002 -95.3749 -124.264
350 25.9972 7.95289 1.4 21.0687 -87.1723 -99.587
351 26.9972 7.95289 1.4 22.04 -90.296 -179.578
352 27.9972 7.95289 1.4 23.0138 -250 0
353 28.9972 7.95289 1.4 23.9897 -250 0
354 29.9972 7.95289 1.4 24.9676 -250 0
355 -28.0028 8.95289 1.4 34.1179 -165.2 10.0225
356 -27.0028 8.95289 1.4 33.1346 -135.503 -21.6422
357 -26.0028 8.95289 1.4 32.1524 -107.913 85.3814
358 -25.0028 8.95289 1.4 31.1713 -164.203 79.005
359 -24.0028 8.95289 1.4 30.1914 -250 0
360 -23.0028 8.95289 1.4 29.2129 -250 0
361 -22.0028 8.95289 1.4 28.2359 -250 0
362 -21.0028 8.95289 1.4 27.2606 -250 0
363 -20.0028 8.95289 1.4 26.2871 -92.2151 -12.8755
364 -19.0028 8.95289 1.4 25.3157 -89.6692 -88.3426
365 -18.0028 8.95289 1.4 24.3466 -109.15 128.867
366 -17.0028 8.95289 1.4 23.3801 -250 0
367 -16.0028 8.95289 1.4 22.4165 -250 0
368 -15.0028 8.95289 1.4 21.4563 -250 0
369 -14.0028 8.95289 1.4 20.4999 -250 0
370 -13.0028 8.95289 1.4 19.5478 -58.8612 100.673
371 -12.0028 8.95289 1.4 18.6008 -73.9399 61.485
372 -11.0028 8.95289 1.4 17.6596 -58.306 -81.7401
373 -10.0028 8.95289 1.4 16.7253 -63.6908 152.323
374 -9.00282 8.95289 1.4 15.7989 -70.7131 -4.27528
375 -8.00282 8.95289 1.4 14.8822 -64.6568 -106.378
376 -7.00282 8.95289 1.4 13.9768 -64.8645 -22.7441
377 -6.00282 8.95289 1.4 13.0852 -66.0719 -157.876
378 -5.00282 8.95289 1.4 12.2105 -72.9785 -146.49
379 -4.00282 8.95289 1.4 11.3564 -79.1886 -165.972
380 -3.00282 8.95289 1.4 10.5281 -58.5089 -130.976
381 -2.00282 8.95289 1.4 9.73204 -56.787 109.323
382 -1.00282 8.95289 1.4 8.97691 -62.9121 -26.3413
383 -0.00282 8.95289 1.4 8.27388 -65.7135 154.006
384 0.99718 8.95289 1.4 7.63737 -61.0863 -140.544
385 1.99718 8.95289 1.4 7.08532 -60.2008 41.5936
386 2.99718 8.95289 1.4 6.63883 -71.4829 179.539
387 3.99718 8.95289 1.4 6.32031 -52.8135 47.7682
388 4.99718 8.95289 1.4 6.14969 -47.1272 166.77
389 5.99718 8.95289 1.4 6.1393 -47.3584 -100.396
390 6.99718 8.95289 1.4 6.28993 -56.3148 -177.517
391 7.99718 8.95289 1.4 6.59057 -59.4848 -80.8141
392 8.99718 8.95289 1.4 7.02196 -54.2591 114.547
393 9.99718 8.95289 1.4 7.56176 -55.1583 3.81671
394 10.9972 8.95289 1.4 8.18856 -69.3234 -42.8878
395 11.9972 8.95289 1.4 8.88396 -54.3303 89.3613
396 12.9972 8.95289 1.4 9.63312 -55.3729 18.6974
397 13.9972 8.95289 1.4 10.4245 -250 0
398 14.9972 8.95289 1.4 11.2491 -250 0
399 15.9972 8.95289 1.4 12.1002 -250 0
400 16.9972 8.95289 1.4 12.9725 -250 0
401 17.9972 8.95289 1.4 13.8621 -86.7255 80.1641
402 18.9972 8.95289 1.4 14.7659 -83.9321 163.538
403 19.9972 8.95289 1.4 15.6813 -69.2435 -169.866
404 20.9972 8.95289 1.4 16.6065 -75.9569 -16.1864
405 21.9972 8.95289 1.4 17.5399 -89.3823 173.861
406 22.9972 8.95289 1.4 18.4803 -250 0
407 23.9972 8.95289 1.4 19.4266 -250 0
408 24.9972 8.95289 1.4 20.378 -95.7183 -134.942
409 25.9972 8.95289 1.4 21.3339 -90.1643 -61.7312
410 26.9972 8.95289 1.4 22.2937 -250 0
411 27.9972 8.95289 1.4 23.2569 -250 0
412 28.9972 8.95289 1.4 24.223 -250 0
413 29.9972 8.95289 1.4 25.1918 -250 0
414 -28.0028 9.95289 1.4 34.3115 -250 0
415 -27.0028 9.95289 1.4 33.334 -250 0
416 -26.0028 9.95289 1.4 32.3578 -250 0
417 -25.0028 9.95289 1.4 31.3831 -114.755 5.47591
418 -24.0028 9.95289 1.4 30.41 -250 0
419 -23.0028 9.95289 1.4 29.4388 -250 0
420 -22.0028 9.95289 1.4 28.4695 -250 0
421 -21.0028 9.95289 1.4 27.5025 -250 0
422 -20.0028 9.95289 1.4 26.5379 -102.873 18.6703
423 -19.0028 9.95289 1.4 25.576 -103.306 -64.6489
424 -18.0028 9.95289 1.4 24.6171 -250 0
425 -17.0028 9.95289 1.4 23.6617 -250 0
426 -16.0028 9.95289 1.4 22.7101 -250 0
427 -15.0028 9.95289 1.4 21.7628 -250 0
428 -14.0028 9.95289 1.4 20.8205 -250 0
429 -13.0028 9.95289 1.4 19.8838 -72.98 158.413
430 -12.0028 9.95289 1.4 18.9535 -71.5268 50.822
431 -11.0028 9.95289 1.4 18.0308 -80.355 -61.8816
432 -10.0028 9.95289 1.4 17.1167 -63.9432 123.612
433 -9.00282 9.95289 1.4 16.2128 -75.304 37.4844
434 -8.00282 9.95289 1.4 15.3208 -76.6447 -132.091
435 -7.00282 9.95289 1.4 14.4429 -75.9703 -84.4475
436 -6.00282 9.95289 1.4 13.582 -62.3857 124.298
437 -5.00282 9.95289 1.4 12.7414 -78.7348 -19.3865
438 -4.00282 9.95289 1.4 11.9254 -65.1039 -58.3751
439 -3.00282 9.95289 1.4 11.1395 -56.1604 -94.1642
440 -2.00282 9.95289 1.4 10.3904 -79.2182 -143.425
441 -1.00282 9.95289 1.4 9.68671 -78.0064 94.8674
442 -0.00282 9.95289 1.4 9.03906 -68.6695 -102.948
443 0.99718 9.95289 1.4 8.46032 -61.9154 -48.4725
444 1.99718 9.95289 1.4 7.96551 -61.4462 -26.7988
445 2.99718 9.95289 1.4 7.5711 -76.2956 102.557
446 3.99718 9.95289 1.4 7.29342 -51.5794 48.7907
447 4.99718 9.95289 1.4 7.14606 -49.6136 101.774
448 5.99718 9.95289 1.4 7.13712 -55.6358 95.8337
449 6.99718 9.95289 1.4 7.26711 -51.9513 120.519
450 7.99718 9.95289 1.4 7.52882 -52.6202 63.48
451 8.99718 9.95289 1.4 7.9092 -54.9552 60.5512
452 9.99718 9.95289 1.4 8.39212 -50.8934 30.9145
453 10.9972 9.95289 1.4 8.96103 -65.4166 51.0892
454 11.9972 9.95289 1.4 9.60064 -78.5034 -92.1715
455 12.9972 9.95289 1.4 10.2978 -57.1831 -134.965
456 13.9972 9.95289 1.4 11.0416 -250 0
457 14.9972 9.95289 1.4 11.8233 -250 0
458 15.9972 9.95289 1.4 12.6357 -250 0
459 16.9972 9.95289 1.4 13.4734 -250 0
460 17.9972 9.95289 1.4 14.332 -72.8217 -24.4688
461 18.9972 9.95289 1.4 15.2078 -79.8483 -20.0736
462 19.9972 9.95289 1.4 16.0982 -78.0363 -174.926
463 20.9972 9.95289 1.4 17.0007 -97.1683 -1.56873
464 21.9972 9.95289 1.4 17.9136 -250 0
465 22.9972 9.95289 1.4 18.8353 -250 0
466 23.9972 9.95289 1.4 19.7646 -250 0
467 24.9972 9.95289 1.4 20.7005 -250 0
468 25.9972 9.95289 1.4 21.6422 -250 0
469 26.9972 9.95289 1.4 22.5889 -250 0
470 27.9972 9.95289 1.4 23.5399 -250 0
471 28.9972 9.95289 1.4 24.4949 -250 0
472 29.9972 9.95289 1.4 25.4534 -250 0
473 -28.0028 10.9529 1.4 34.533 -250 0
474 -27.0028 10.9529 1.4 33.5619 -250 0
475 -26.0028 10.9529 1.4 32.5925 -250 0
476 -25.0028 10.9529 1.4 31.6251 -250 0
477 -24.0028 10.9529 1.4 30.6597 -250 0
478 -23.0028 10.9529 1.4 29.6966 -250 0
479 -22.0028 10.9529 1.4 28.7361 -250 0
480 -21.0028 10.9529 1.4 27.7783 -250 0
481 -20.0028 10.9529 1.4 26.8236 -250 0
482 -19.0028 10.9529 1.4 25.8724 -250 0
483 -18.0028 10.9529 1.4 24.9249 -250 0
484 -17.0028 10.9529 1.4 23.9817 -250 0
485 -16.0028 10.9529 1.4 23.0433 -250 0
486 -15.0028 10.9529 1.4 22.1104 -250 0
487 -14.0028 10.9529 1.4 21.1835 -250 0
488 -13.0028 10.9529 1.4 20.2636 -73.9434 162.109
489 -12.0028 10.9529 1.4 19.3516 -67.948 10.3178
490 -11.0028 10.9529 1.4 18.4488 -62.174 161.689
491 -10.0028 10.9529 1.4 17.5565 -77.6136 -109.787
492 -9.00282 10.9529 1.4 16.6764 -250 0
493 -8.00282 10.9529 1.4 15.8106 -250 0
494 -7.00282 10.9529 1.4 14.9615 -74.6206 -117.466
495 -6.00282 10.9529 1.4 14.1322 -250 0
496 -5.00282 10.9529 1.4 13.3263 -60.7088 -57.1874
497 -4.00282 10.9529 1.4 12.5484 -250 0
498 -3.00282 10.9529 1.4 11.804 -77.523 122.014
499 -2.00282 10.9529 1.4 11.0999 -81.6068 19.8392
500 -1.00282 10.9529 1.4 10.4441 -250 0
501 -0.00282 10.9529 1.4 9.84643 -250 0
502 0.99718 10.9529 1.4 9.31797 -65.2313 -65.815
503 1.99718 10.9529 1.4 8.87113 -67.9287 -177.952
504 2.99718 10.9529 1.4 8.51875 -73.721 113.019
505 3.99718 10.9529 1.4 8.27294 -53.7854 33.8386
506 4.99718 10.9529 1.4 8.14333 -56.8776 4.78451
507 5.99718 10.9529 1.4 8.13548 -45.7745 55.824
508 6.99718 10.9529 1.4 8.24975 -58.9788 74.5613
509 7.99718 10.9529 1.4 8.4812 -59.823 166.59
510 8.99718 10.9529 1.4 8.8206 -52.9998 -178.191
511 9.99718 10.9529 1.4 9.25609 -60.6885 13.3418
512 10.9972 10.9529 1.4 9.77485 -72.8349 -52.6169
513 11.9972 10.9529 1.4 10.3644 -95.5654 -164.286
514 12.9972 10.9529 1.4 11.0133 -109.627 163.789
515 13.9972 10.9529 1.4 11.7117 -250 0
516 14.9972 10.9529 1.4 12.4514 -250 0
517 15.9972 10.9529 1.4 13.2253 -250 0
518 16.9972 10.9529 1.4 14.0279 -250 0
519 17.9972 10.9529 1.4 14.8544 -77.3248 -138.538
520 18.9972 10.9529 1.4 15.7011 -78.1174 -76.7817
521 19.9972 10.9529 1.4 16.565 -83.8916 -162.848
522 20.9972 10.9529 1.4 17.4434 -83.4621 121.065
523 21.9972 10.9529 1.4 18.3342 -250 0
524 22.9972 10.9529 1.4 19.2358 -250 0
525 23.9972 10.9529 1.4 20.1467 -91.9094 -178.036
526 24.9972 10.9529 1.4 21.0656 -91.9088 103.546
527 25.9972 10.9529 1.4 21.9916 -250 0
528 26.9972 10.9529 1.4 22.9239 -250 0
529 27.9972 10.9529 1.4 23.8616 -250 0
530 28.9972 10.9529 1.4 24.8042 -250 0
531 29.9972 10.9529 1.4 25.7511 -250 0
532 -28.0028 11.9529 1.4 34.7818 -250 0
533 -27.0028 11.9529 1.4 33.8179 -116.101 165.766
534 -26.0028 11.9529 1.4 32.856 -122.925 82.9952
535 -25.0028 11.9529 1.4 31.8966 -250 0
536 -24.0028 11.9529 1.4 30.9397 -250 0
537 -23.0028 11.9529 1.4 29.9856 -250 0
538 -22.0028 11.9529 1.4 29.0346 -250 0
539 -21.0028 11.9529 1.4 28.087 -91.2849 -162.112
540 -20.0028 11.9529 1.4 27.1432 -97.8458 -165.9
541 -19.0028 11.9529 1.4 26.2036 -250 0
542 -18.0028 11.9529 1.4 25.2685 -250 0
543 -17.0028 11.9529 1.4 24.3387 -250 0
544 -16.0028 11.9529 1.4 23.4146 -85.5627 -0.64235
545 -15.0028 11.9529 1.4 22.497 -85.4744 22.604
546 -14.0028 11.9529 1.4 21.5867 -250 0
547 -13.0028 11.9529 1.4 20.6848 -250 0
548 -12.0028 11.9529 1.4 19.7922 -85.9579 -130.728
549 -11.0028 11.9529 1.4 18.9104 -77.9043 0.74866
550 -10.0028 11.9529 1.4 18.041 -100.989 -162.021
551 -9.00282 11.9529 1.4 17.1857 -85.5045 -48.6811
552 -8.00282 11.9529 1.4 16.3469 -250 0
553 -7.00282 11.9529 1.4 15.5272 -250 0
554 -6.00282 11.9529 1.4 14.7298 -250 0
555 -5.00282 11.9529 1.4 13.9584 -85.2985 152.159
556 -4.00282 11.9529 1.4 13.2178 -70.0064 -76.0735
557 -3.00282 11.9529 1.4 12.5133 -82.0885 -89.3024
558 -2.00282 11.9529 1.4 11.8514 -65.0092 102.859
559 -1.00282 11.9529 1.4 11.2396 -78.4596 -157.418
560 -0.00282 11.9529 1.4 10.6864 -74.8599 -9.96066
561 0.99718 11.9529 1.4 10.2016 -67.7245 -164.202
562 1.99718 11.9529 1.4 9.79512 -72.0989 -79.7769
563 2.99718 11.9529 1.4 9.47717 -80.9516 -113.984
564 3.99718 11.9529 1.4 9.25684 -76.9138 -79.2531
565 4.99718 11.9529 1.4 9.14119 -67.9772 28.0139
566 5.99718 11.9529 1.4 9.1342 -54.7258 -52.3263
567 6.99718 11.9529 1.4 9.23612 -51.4332 7.98162
568 7.99718 11.9529 1.4 9.44342 -60.5971 99.9907
569 8.99718 11.9529 1.4 9.74939 -52.0043 111.516
570 9.99718 11.9529 1.4 10.1451 -60.3644 -20.0026
571 10.9972 11.9529 1.4 10.6205 -71.3782 40.6679
572 11.9972 11.9529 1.4 11.1655 -63.6761 -163.161
573 12.9972 11.9529 1.4 11.7703 -73.3963 6.72614
574 13.9972 11.9529 1.4 12.4263 -99.2528 -160.306
575 14.9972 11.9529 1.4 13.1257 -81.3866 -19.466
576 15.9972 11.9529 1.4 13.8621 -64.4556 -132.816
577 16.9972 11.9529 1.4 14.6297 -79.2856 50.1418
578 17.9972 11.9529 1.4 15.424 -66.1568 -83.1313
579 18.9972 11.9529 1.4 16.2411 -83.7997 -117.716
580 19.9972 11.9529 1.4 17.0776 -84.7857 146.183
581 20.9972 11.9529 1.4 17.9309 -250 0
582 21.9972 11.9529 1.4 18.7987 -250 0
583 22.9972 11.9529 1.4 19.679 -89.5175 97.8584
584 23.9972 11.9529 1.4 20.5702 -82.4355 26.0792
585 24.9972 11.9529 1.4 21.4711 -250 0
586 25.9972 11.9529 1.4 22.3803 -92.4537 -112.969
587 26.9972 11.9529 1.4 23.297 -250 0
588 27.9972 11.9529 1.4 24.2203 -100.428 -110.117
589 28.9972 11.9529 1.4 25.1495 -250 0
590 29.9972 11.9529 1.4 26.0839 -250 0
591 -28.0028 12.9529 1.4 35.0574 -100.335 67.961
592 -27.0028 12.9529 1.4 34.1012 -120.241 -87.1698
593 -26.0028 12.9529 1.4 33.1477 -119.864 -117.079
594 -25.0028 12.9529 1.4 32.1969 -115.952 -46.6807
595 -24.0028 12.9529 1.4 31.2492 -250 0
596 -23.0028 12.9529 1.4 30.3049 -77.2743 118.554
597 -22.0028 12.9529 1.4 29.3642 -250 0
598 -21.0028 12.9529 1.4 28.4276 -250 0
599 -20.0028 12.9529 1.4 27.4955 -250 0
600 -19.0028 12.9529 1.4 26.5683 -250 0
601 -18.0028 12.9529 1.4 25.6466 -92.513 -107.525
602 -17.0028 12.9529 1.4 24.7309 -84.6498 61.2169
603 -16.0028 12.9529 1.4 23.8221 -250 0
604 -15.0028 12.9529 1.4 22.9208 -89.2364 149.113
605 -14.0028 12.9529 1.4 22.0281 -86.1449 107.086
606 -13.0028 12.9529 1.4 21.1449 -76.6409 119.012
607 -12.0028 12.9529 1.4 20.2726 -90.0201 145.563
608 -11.0028 12.9529 1.4 19.4127 -96.4188 121.757
609 -10.0028 12.9529 1.4 18.5668 -108.019 86.2068
610 -9.00282 12.9529 1.4 17.7369 -90.1123 -129.777
611 -8.00282 12.9529 1.4 16.9254 -80.0021 2.34105
612 -7.00282 12.9529 1.4 16.1351 -250 0
613 -6.00282 12.9529 1.4 15.3692 -250 0
614 -5.00282 12.9529 1.4 14.6317 -250 0
615 -4.00282 12.9529 1.4 13.9269 -250 0
616 -3.00282 12.9529 1.4 13.2601 -73.3248 -67.1904
617 -2.00282 12.9529 1.4 12.6374 -92.689 24.582
618 -1.00282 12.9529 1.4 12.0655 -250 0
619 -0.00282 12.9529 1.4 11.5519 -250 0
620 0.99718 12.9529 1.4 11.1049 -82.799 136.452
621 1.99718 12.9529 1.4 10.7328 -64.3903 63.4444
622 2.99718 12.9529 1.4 10.4434 -77.8608 -90.0085
623 3.99718 12.9529 1.4 10.2439 -79.2626 -26.4912
624 4.99718 12.9529 1.4 10.1395 -78.5167 50.5989
625 5.99718 12.9529 1.4 10.1332 -59.385 -130.444
626 6.99718 12.9529 1.4 10.2251 -54.755 -102.125
627 7.99718 12.9529 1.4 10.4128 -64.5824 137.228
628 8.99718 12.9529 1.4 10.691 -57.1821 -36.6109
629 9.99718 12.9529 1.4 11.0531 -60.6317 -67.3059
630 10.9972 12.9529 1.4 11.491 -61.2588 115.034
631 11.9972 12.9529 1.4 11.9965 -59.254 -86.4657
632 12.9972 12.9529 1.4 12.5613 -75.5593 -179.831
633 13.9972 12.9529 1.4 13.178 -83.9382 42.9181
634 14.9972 12.9529 1.4 13.8395 -98.1063 -163.91
635 15.9972 12.9529 1.4 14.5397 -99.0821 -109.458
636 16.9972 12.9529 1.4 15.2734 -67.6946 46.5066
637 17.9972 12.9529 1.4 16.0359 -250 0
638 18.9972 12.9529 1.4 16.8232 -250 0
639 19.9972 12.9529 1.4 17.6322 -250 0
640 20.9972 12.9529 1.4 18.4598 -89.9034 -86.3294
641 21.9972 12.9529 1.4 19.3038 -68.0752 -68.9168
642 22.9972 12.9529 1.4 20.1621 -250 0
643 23.9972 12.9529 1.4 21.0329 -250 0
644 24.9972 12.9529 1.4 21.9147 -250 0
645 25.9972 12.9529 1.4 22.8063 -250 0
646 26.9972 12.9529 1.4 23.7065 -82.1382 167.955
647 27.9972 12.9529 1.4 24.6145 -250 0
648 28.9972 12.9529 1.4 25.5293 -250 0
649 29.9972 12.9529 1.4 26.4503 -250 0
650 -28.0028 13.9529 1.4 35.3592 -250 0
651 -27.0028 13.9529 1.4 34.4114 -250 0
652 -26.0028 13.9529 1.4 33.4666 -250 0
653 -25.0028 13.9529 1.4 32.5252 -250 0
654 -24.0028 13.9529 1.4 31.5873 -99.4852 -158.268
655 -23.0028 13.9529 1.4 30.6534 -250 0
656 -22.0028 13.9529 1.4 29.7238 -250 0
657 -21.0028 13.9529 1.4 28.7989 -77.3853 -125.046
658 -20.0028 13.9529 1.4 27.8792 -86.5272 163.51
659 -19.0028 13.9529 1.4 26.9652 -89.7403 77.9348
660 -18.0028 13.9529 1.4 26.0575 -250 0
661 -17.0028 13.9529 1.4 25.1568 -86.7004 -6.16275
662 -16.0028 13.9529 1.4 24.2639 -85.1055 146.152
663 -15.0028 13.9529 1.4 23.3797 -84.5642 8.90554
664 -14.0028 13.9529 1.4 22.5052 -89.3179 -112.508
665 -13.0028 13.9529 1.4 21.6415 -91.7653 -75.2857
666 -12.0028 13.9529 1.4 20.7901 -101.72 113.47
667 -11.0028 13.9529 1.4 19.9524 -79.039 -91.1608
668 -10.0028 13.9529 1.4 19.1304 -79.4074 149.095
669 -9.00282 13.9529 1.4 18.3261 -94.9014 -36.5363
670 -8.00282 13.9529 1.4 17.5419 -250 0
671 -7.00282 13.9529 1.4 16.7806 -250 0
672 -6.00282 13.9529 1.4 16.0456 -84.871 151.842
673 -5.00282 13.9529 1.4 15.3406 -83.0243 -75.4863
674 -4.00282 13.9529 1.4 14.6699 -65.6562 59.5543
675 -3.00282 13.9529 1.4 14.0384 -69.6735 126.175
676 -2.00282 13.9529 1.4 13.4518 -250 0
677 -1.00282 13.9529 1.4 12.916 -83.8682 46.0771
678 -0.00282 13.9529 1.4 12.4376 -74.2118 36.8972
679 0.99718 13.9529 1.4 12.0236 -71.5399 169.665
680 1.99718 13.9529 1.4 11.6807 -73.0138 156.786
681 2.99718 13.9529 1.4 11.4154 -64.4032 -142.015
682 3.99718 13.9529 1.4 11.2332 -88.0589 -147.722
683 4.99718 13.9529 1.4 11.1381 -79.7555 -53.2964
684 5.99718 13.9529 1.4 11.1323 -81.6838 169.514
685 6.99718 13.9529 1.4 11.2161 -52.3055 -134.408
686 7.99718 13.9529 1.4 11.3874 -68.8601 151.622
687 8.99718 13.9529 1.4 11.6424 -58.302 69.3171
688 9.99718 13.9529 1.4 11.9757 -62.041 144.506
689 10.9972 13.9529 1.4 12.381 -69.0479 18.1435
690 11.9972 13.9529 1.4 12.8516 -67.9094 -112.136
691 12.9972 13.9529 1.4 13.3804 -70.1817 -169.054
692 13.9972 13.9529 1.4 13.9609 -79.492 116.411
693 14.9972 13.9529 1.4 14.587 -75.7871 66.8421
694 15.9972 13.9529 1.4 15.2529 -84.1708 32.0515
695 16.9972 13.9529 1.4 15.9538 -250 0
696 17.9972 13.9529 1.4 16.6852 -64.7624 147
697 18.9972 13.9529 1.4 17.4433 -80.0501 70.9693
698 19.9972 13.9529 1.4 18.2247 -98.8059 65.0485
699 20.9972 13.9529 1.4 19.0266 -70.1196 -172.73
700 21.9972 13.9529 1.4 19.8466 -250 0
701 22.9972 13.9529 1.4 20.6823 -250 0
702 23.9972 13.9529 1.4 21.5321 -81.3498 -80.4234
703 24.9972 13.9529 1.4 22.3943 -84.8751 22.9081
704 25.9972 13.9529 1.4 23.2675 -100.296 -35.8857
705 26.9972 13.9529 1.4 24.1505 -100.191 -56.1545
706 27.9972 13.9529 1.4 25.0424 -93.5128 172.544
707 28.9972 13.9529 1.4 25.9421 -250 0
708 29.9972 13.9529 1.4 26.8489 -250 0
709 -28.0028 14.9529 1.4 35.6864 -250 0
710 -27.0028 14.9529 1.4 34.7475 -250 0
711 -26.0028 14.9529 1.4 33.8122 -117.307 -95.9264
712 -25.0028 14.9529 1.4 32.8806 -250 0
713 -24.0028 14.9529 1.4 31.9532 -250 0
714 -23.0028 14.9529 1.4 31.0303 -84.6969 139.03
715 -22.0028 14.9529 1.4 30.1123 -85.114 82.3237
716 -21.0028 14.9529 1.4 29.1997 -250 0
717 -20.0028 14.9529 1.4 28.293 -250 0
718 -19.0028 14.9529 1.4 27.3929 -250 0
719 -18.0028 14.9529 1.4 26.4998 -250 0
720 -17.0028 14.9529 1.4 25.6147 -250 0
721 -16.0028 14.9529 1.4 24.7383 -250 0
722 -15.0028 14.9529 1.4 23.8717 -250 0
723 -14.0028 14.9529 1.4 23.0159 -250 0
724 -13.0028 14.9529 1.4 22.1721 -250 0
725 -12.0028 14.9529 1.4 21.3419 -250 0
726 -11.0028 14.9529 1.4 20.5267 -250 0
727 -10.0028 14.9529 1.4 19.7286 -104.027 130.358
728 -9.00282 14.9529 1.4 18.9497 -102.949 -162.201
729 -8.00282 14.9529 1.4 18.1924 -101.646 -98.1451
730 -7.00282 14.9529 1.4 17.4596 -83.8509 129.417
731 -6.00282 14.9529 1.4 16.7544 -82.1937 -81.1513
732 -5.00282 14.9529 1.4 16.0805 -67.8091 -173.245
733 -4.00282 14.9529 1.4 15.4419 -69.1059 -54.6027
734 -3.00282 14.9529 1.4 14.8434 -250 0
735 -2.00282 14.9529 1.4 14.2898 -250 0
736 -1.00282 14.9529 1.4 13.7866 -73.8872 140.123
737 -0.00282 14.9529 1.4 13.3395 -121.688 -167.63
738 0.99718 14.9529 1.4 12.9543 -116.199 -123.961
739 1.99718 14.9529 1.4 12.6367 -106.944 -126.896
740 2.99718 14.9529 1.4 12.3919 -90.2775 -177.077
741 3.99718 14.9529 1.4 12.2242 -78.9359 161.458
742 4.99718 14.9529 1.4 12.1369 -108.485 -65.1273
743 5.99718 14.9529 1.4 12.1316 -97.0476 -115.147
744 6.99718 14.9529 1.4 12.2085 -74.1285 -152.573
745 7.99718 14.9529 1.4 12.3661 -82.0826 -2.58867
746 8.99718 14.9529 1.4 12.6013 -83.967 -3.31326
747 9.99718 14.9529 1.4 12.9099 -69.2328 37.4599
748 10.9972 14.9529 1.4 13.2868 -62.5341 -63.2661
749 11.9972 14.9529 1.4 13.7263 -109.011 -174.291
750 12.9972 14.9529 1.4 14.2226 -115.617 -179.38
751 13.9972 14.9529 1.4 14.7701 -72.1195 -143.07
752 14.9972 14.9529 1.4 15.3632 -70.0015 172.93
753 15.9972 14.9529 1.4 15.9969 -250 0
754 16.9972 14.9529 1.4 16.6665 -250 0
755 17.9972 14.9529 1.4 17.3679 -250 0
756 18.9972 14.9529 1.4 18.0974 -250 0
757 19.9972 14.9529 1.4 18.8518 -250 0
758 20.9972 14.9529 1.4 19.6281 -138.978 103.032
759 21.9972 14.9529 1.4 20.4238 -142.757 42.9654
760 22.9972 14.9529 1.4 21.2369 -145.761 -22.3906
761 23.9972 14.9529 1.4 22.0653 -148.257 -90.6485
762 24.9972 14.9529 1.4 22.9074 -126.41 -90.5563
763 25.9972 14.9529 1.4 23.7618 -250 0
764 26.9972 14.9529 1.4 24.6271 -250 0
765 27.9972 14.9529 1.4 25.5023 -250 0
766 28.9972 14.9529 1.4 26.3863 -250 0
767 29.9972 14.9529 1.4 27.2784 -250 0
768 -28.0028 15.9529 1.4 36.0384 -250 0
769 -27.0028 15.9529 1.4 35.1089 -117.012 53.7313
770 -26.0028 15.9529 1.4 34.1835 -250 0
771 -25.0028 15.9529 1.4 33.2623 -94.1191 91.707
772 -24.0028 15.9529 1.4 32.3459 -250 0
773 -23.0028 15.9529 1.4 31.4345 -250 0
774 -22.0028 15.9529 1.4 30.5287 -250 0
775 -21.0028 15.9529 1.4 29.6289 -250 0
776 -20.0028 15.9529 1.4 28.7358 -133.27 123.187
777 -19.0028 15.9529 1.4 27.8499 -250 0
778 -18.0028 15.9529 1.4 26.972 -250 0
779 -17.0028 15.9529 1.4 26.1029 -250 0
780 -16.0028 15.9529 1.4 25.2435 -250 0
781 -15.0028 15.9529 1.4 24.3948 -250 0
782 -14.0028 15.9529 1.4 23.558 -250 0
783 -13.0028 15.9529 1.4 22.7343 -250 0
784 -12.0028 15.9529 1.4 21.9254 -250 0
785 -11.0028 15.9529 1.4 21.1328 -98.6288 28.5711
786 -10.0028 15.9529 1.4 20.3585 -102.39 70.9612
787 -9.00282 15.9529 1.4 19.6046 -100.954 63.7755
788 -8.00282 15.9529 1.4 18.8736 -99.08 21.8054
789 -7.00282 15.9529 1.4 18.1682 -84.0809 57.0464
790 -6.00282 15.9529 1.4 17.4916 -66.7994 -21.7986
791 -5.00282 15.9529 1.4 16.8472 -71.0593 95.4104
792 -4.00282 15.9529 1.4 16.2389 -250 0
793 -3.00282 15.9529 1.4 15.6708 -250 0
794 -2.00282 15.9529 1.4 15.1475 -84.4249 -147.755
795 -1.00282 15.9529 1.4 14.6737 -90.4217 -69.1965
796 -0.00282 15.9529 1.4 14.2545 -107.362 134.222
797 0.99718 15.9529 1.4 13.8947 -98.458 -117.027
798 1.99718 15.9529 1.4 13.5991 -77.2373 20.9592
799 2.99718 15.9529 1.4 13.3719 -75.3435 85.9795
800 3.99718 15.9529 1.4 13.2166 -74.0048 177.921
801 4.99718 15.9529 1.4 13.1359 -84.8591 85.9314
802 5.99718 15.9529 1.4 13.131 -88.0074 -123.362
803 6.99718 15.9529 1.4 13.2021 -65.1361 -82.0751
804 7.99718 15.9529 1.4 13.348 -77.8115 97.5824
805 8.99718 15.9529 1.4 13.5662 -73.2259 79.2277
806 9.99718 15.9529 1.4 13.8533 -87.7439 104.775
807 10.9972 15.9529 1.4 14.2051 -62.5372 126.216
808 11.9972 15.9529 1.4 14.617 -63.558 -33.317
809 12.9972 15.9529 1.4 15.0841 -81.8322 -80.8633
810 13.9972 15.9529 1.4 15.6014 -87.1927 -155.352
811 14.9972 15.9529 1.4 16.164 -72.8983 -9.3708
812 15.9972 15.9529 1.4 16.7674 -72.0481 15.0562
813 16.9972 15.9529 1.4 17.4074 -250 0
814 17.9972 15.9529 1.4 18.0801 -250 0
815 18.9972 15.9529 1.4 18.782 -250 0
816 19.9972 15.9529 1.4 19.5099 -250 0
817 20.9972 15.9529 1.4 20.261 -125.195 97.944
818 21.9972 15.9529 1.4 21.0328 -129.798 -173.263
819 22.9972 15.9529 1.4 21.8232 -133.324 -139.18
820 23.9972 15.9529 1.4 22.6302 -136.162 -136.86
821 24.9972 15.9529 1.4 23.452 -102.398 98.0258
822 25.9972 15.9529 1.4 24.2872 -99.4768 67.5685
823 26.9972 15.9529 1.4 25.1345 -250 0
824 27.9972 15.9529 1.4 25.9926 -112.9 137.193
825 28.9972 15.9529 1.4 26.8605 -250 0
826 29.9972 15.9529 1.4 27.7373 -250 0
827 -28.0028 16.9529 1.4 36.4145 -116.806 -157.154
828 -27.0028 16.9529 1.4 35.4949 -112.356 -178.581
829 -26.0028 16.9529 1.4 34.5797 -115.066 178.766
830 -25.0028 16.9529 1.4 33.6694 -125.588 146.964
831 -24.0028 16.9529 1.4 32.7643 -133.689 -17.0465
832 -23.0028 16.9529 1.4 31.8649 -250 0
833 -22.0028 16.9529 1.4 30.9717 -250 0
834 -21.0028 16.9529 1.4 30.0852 -250 0
835 -20.0028 16.9529 1.4 29.206 -97.4113 -161.943
836 -19.0028 16.9529 1.4 28.3349 -132.678 -85.021
837 -18.0028 16.9529 1.4 27.4725 -250 0
838 -17.0028 16.9529 1.4 26.6197 -250 0
839 -16.0028 16.9529 1.4 25.7775 -250 0
840 -15.0028 16.9529 1.4 24.947 -250 0
841 -14.0028 16.9529 1.4 24.1293 -250 0
842 -13.0028 16.9529 1.4 23.3259 -250 0
843 -12.0028 16.9529 1.4 22.5382 -97.7816 143.438
844 -11.0028 16.9529 1.4 21.7679 -90.2721 -152.905
845 -10.0028 16.9529 1.4 21.017 -90.0839 -130.203
846 -9.00282 16.9529 1.4 20.2876 -98.4463 160.49
847 -8.00282 16.9529 1.4 19.5821 -82.6524 39.6502
848 -7.00282 16.9529 1.4 18.9032 -79.045 80.0339
849 -6.00282 16.9529 1.4 18.2539 -70.5481 -94.2323
850 -5.00282 16.9529 1.4 17.6374 -86.2058 -131.867
851 -4.00282 16.9529 1.4 17.0572 -250 0
852 -3.00282 16.9529 1.4 16.5173 -90.4062 -136.183
853 -2.00282 16.9529 1.4 16.0216 -72.4675 8.63692
854 -1.00282 16.9529 1.4 15.5745 -250 0
855 -0.00282 16.9529 1.4 15.1802 -95.7394 94.4372
856 0.99718 16.9529 1.4 14.8428 -83.1784 145.741
857 1.99718 16.9529 1.4 14.5665 -76.1229 9.29952
858 2.99718 16.9529 1.4 14.3546 -74.871 -43.4238
859 3.99718 16.9529 1.4 14.2101 -83.812 -97.1616
860 4.99718 16.9529 1.4 14.135 -74.7328 152.241
861 5.99718 16.9529 1.4 14.1305 -95.2199 -16.9244
862 6.99718 16.9529 1.4 14.1966 -66.6467 -121.28
863 7.99718 16.9529 1.4 14.3323 -75.87 153.849
864 8.99718 16.9529 1.4 14.5358 -76.2071 -121.945
865 9.99718 16.9529 1.4 14.8041 -78.8629 49.173
866 10.9972 16.9529 1.4 15.1338 -72.1068 -74.689
867 11.9972 16.9529 1.4 15.5211 -68.3857 112.267
868 12.9972 16.9529 1.4 15.9618 -64.8824 93.6298
869 13.9972 16.9529 1.4 16.4514 -250 0
870 14.9972 16.9529 1.4 16.9859 -86.6386 81.9221
871 15.9972 16.9529 1.4 17.5612 -64.8195 149.162
872 16.9972 16.9529 1.4 18.1732 -250 0
873 17.9972 16.9529 1.4 18.8186 -250 0
874 18.9972 16.9529 1.4 19.4939 -250 0
875 19.9972 16.9529 1.4 20.1961 -250 0
876 20.9972 16.9529 1.4 20.9226 -83.5632 -105.329
877 21.9972 16.9529 1.4 21.6709 -106.748 -126.538
878 22.9972 16.9529 1.4 22.4388 -102.379 -30.0022
879 23.9972 16.9529 1.4 23.2244 -250 0
880 24.9972 16.9529 1.4 24.0259 -250 0
881 25.9972 16.9529 1.4 24.8419 -109.425 -169.53
882 26.9972 16.9529 1.4 25.6708 -250 0
883 27.9972 16.9529 1.4 26.5115 -94.8853 122.907
884 28.9972 16.9529 1.4 27.363 -250 0
885 29.9972 16.9529 1.4 28.2242 -250 0
886 -28.0028 17.9529 1.4 36.8139 -97.5316 -129.541
887 -27.0028 17.9529 1.4 35.9045 -114.829 -37.7688
888 -26.0028 17.9529 1.4 35.0001 -250 0
889 -25.0028 17.9529 1.4 34.101 -250 0
890 -24.0028 17.9529 1.4 33.2077 -125.498 -72.5184
891 -23.0028 17.9529 1.4 32.3206 -105.985 -109.831
892 -22.0028 17.9529 1.4 31.4403 -127.373 34.9766
893 -21.0028 17.9529 1.4 30.5674 -250 0
894 -20.0028 17.9529 1.4 29.7025 -250 0
895 -19.0028 17.9529 1.4 28.8463 -137.633 -166.451
896 -18.0028 17.9529 1.4 27.9997 -100.639 106.869
897 -17.0028 17.9529 1.4 27.1635 -250 0
898 -16.0028 17.9529 1.4 26.3387 -250 0
899 -15.0028 17.9529 1.4 25.5265 -250 0
900 -14.0028 17.9529 1.4 24.728 -250 0
901 -13.0028 17.9529 1.4 23.9446 -83.9168 45.1881
902 -12.0028 17.9529 1.4 23.178 -104.75 84.6029
903 -11.0028 17.9529 1.4 22.4297 -250 0
904 -10.0028 17.9529 1.4 21.7017 -97.9918 166.48
905 -9.00282 17.9529 1.4 20.9961 -83.2496 -131.065
906 -8.00282 17.9529 1.4 20.3152 -70.7678 75.2034
907 -7.00282 17.9529 1.4 19.6616 -250 0
908 -6.00282 17.9529 1.4 19.0382 -250 0
909 -5.00282 17.9529 1.4 18.4479 -250 0
910 -4.00282 17.9529 1.4 17.894 -250 0
911 -3.00282 17.9529 1.4 17.3801 -73.5566 -77.1339
912 -2.00282 17.9529 1.4 16.9098 -91.8802 -45.1018
913 -1.00282 17.9529 1.4 16.4867 -250 0
914 -0.00282 17.9529 1.4 16.1148 -85.0548 -74.1276
915 0.99718 17.9529 1.4 15.7974 -79.0659 135.327
916 1.99718 17.9529 1.4 15.538 -62.3122 70.8471
917 2.99718 17.9529 1.4 15.3396 -91.0638 5.05682
918 3.99718 17.9529 1.4 15.2044 -85.4292 -89.8759
919 4.99718 17.9529 1.4 15.1343 -81.6721 78.0653
920 5.99718 17.9529 1.4 15.1301 -70.8062 31.7699
921 6.99718 17.9529 1.4 15.1918 -77.0583 -114.739
922 7.99718 17.9529 1.4 15.3187 -70.9375 -164.482
923 8.99718 17.9529 1.4 15.5092 -81.8983 24.5846
924 9.99718 17.9529 1.4 15.761 -85.9897 -78.255
925 10.9972 17.9529 1.4 16.0711 -84.6641 -172.874
926 11.9972 17.9529 1.4 16.4363 -62.1296 -39.8024
927 12.9972 17.9529 1.4 16.853 -59.3449 152.68
928 13.9972 17.9529 1.4 17.3175 -250 0
929 14.9972 17.9529 1.4 17.8261 -250 0
930 15.9972 17.9529 1.4 18.375 -85.4454 -63.3396
931 16.9972 17.9529 1.4 18.9609 -60.6538 -19.1291
932 17.9972 17.9529 1.4 19.5803 -250 0
933 18.9972 17.9529 1.4 20.2302 -250 0
934 19.9972 17.9529 1.4 20.9077 -250 0
935 20.9972 17.9529 1.4 21.6103 -94.7868 155.474
936 21.9972 17.9529 1.4 22.3355 -79.0136 60.078
937 22.9972 17.9529 1.4 23.0813 -126.094 51.1722
938 23.9972 17.9529 1.4 23.8458 -125.002 5.78295
939 24.9972 17.9529 1.4 24.6271 -250 0
940 25.9972 17.9529 1.4 25.4237 -250 0
941 26.9972 17.9529 1.4 26.2343 -83.5484 28.7646
942 27.9972 17.9529 1.4 27.0575 -97.794 157.975
943 28.9972 17.9529 1.4 27.8923 -97.4343 -101.492
944 29.9972 17.9529 1.4 28.7377 -96.9623 -103.509
945 -28.0028 18.9529 1.4 37.2358 -250 0
946 -27.0028 18.9529 1.4 36.337 -250 0
947 -26.0028 18.9529 1.4 35.4437 -250 0
948 -25.0028 18.9529 1.4 34.5561 -250 0
949 -24.0028 18.9529 1.4 33.6749 -250 0
950 -23.0028 18.9529 1.4 32.8005 -250 0
951 -22.0028 18.9529 1.4 31.9334 -250 0
952 -21.0028 18.9529 1.4 31.0743 -250 0
953 -20.0028 18.9529 1.4 30.2239 -250 0
954 -19.0028 18.9529 1.4 29.383 -250 0
955 -18.0028 18.9529 1.4 28.5523 -250 0
956 -17.0028 18.9529 1.4 27.7327 -250 0
957 -16.0028 18.9529 1.4 26.9254 -250 0
958 -15.0028 18.9529 1.4 26.1314 -250 0
959 -14.0028 18.9529 1.4 25.3519 -250 0
960 -13.0028 18.9529 1.4 24.5885 -250 0
961 -12.0028 18.9529 1.4 23.8425 -96.619 -150.598
962 -11.0028 18.9529 1.4 23.1157 -97.8254 38.223
963 -10.0028 18.9529 1.4 22.41 -83.6751 96.5667
964 -9.00282 18.9529 1.4 21.7274 -82.9829 -135.445
965 -8.00282 18.9529 1.4 21.0702 -96.4558 3.76991
966 -7.00282 18.9529 1.4 20.4408 -250 0
967 -6.00282 18.9529 1.4 19.8418 -250 0
968 -5.00282 18.9529 1.4 19.2762 -250 0
969 -4.00282 18.9529 1.4 18.7468 -250 0
970 -3.00282 18.9529 1.4 18.2569 -99.2593 -46.7938
971 -2.00282 18.9529 1.4 17.8098 -73.4046 -159.94
972 -1.00282 18.9529 1.4 17.4086 -91.4841 135.432
973 -0.00282 18.9529 1.4 17.0568 -76.9196 -1.67488
974 0.99718 18.9529 1.4 16.7572 -69.4121 -120.761
975 1.99718 18.9529 1.4 16.5129 -71.4397 -83.1266
976 2.99718 18.9529 1.4 16.3263 -92.4865 -58.0154
977 3.99718 18.9529 1.4 16.1994 -106.083 -150.661
978 4.99718 18.9529 1.4 16.1336 -85.5791 -116.954
979 5.99718 18.9529 1.4 16.1297 -74.3678 49.1228
980 6.99718 18.9529 1.4 16.1876 -66.1693 52.8729
981 7.99718 18.9529 1.4 16.3068 -69.368 146.721
982 8.99718 18.9529 1.4 16.4859 -87.388 150.835
983 9.99718 18.9529 1.4 16.7229 -85.5176 -117.232
984 10.9972 18.9529 1.4 17.0155 -79.5605 33.5574
985 11.9972 18.9529 1.4 17.3609 -76.7964 114.839
986 12.9972 18.9529 1.4 17.7559 -58.3115 6.70875
987 13.9972 18.9529 1.4 18.1974 -250 0
988 14.9972 18.9529 1.4 18.682 -98.3643 32.9057
989 15.9972 18.9529 1.4 19.2065 -71.5326 174.607
990 16.9972 18.9529 1.4 19.7677 -90.0794 31.0508
991 17.9972 18.9529 1.4 20.3626 -250 0
992 18.9972 18.9529 1.4 20.9882 -250 0
993 19.9972 18.9529 1.4 21.6421 -250 0
994 20.9972 18.9529 1.4 22.3215 -103.726 -109.762
995 21.9972 18.9529 1.4 23.0244 -95.5978 -63.8878
996 22.9972 18.9529 1.4 23.7486 -82.2029 -122.359
997 23.9972 18.9529 1.4 24.4922 -100.764 -43.3285
998 24.9972 18.9529 1.4 25.2535 -250 0
999 25.9972 18.9529 1.4 26.031 -86.0678 -118.19
1000 26.9972 18.9529 1.4 26.8232 -113.654 -119.834
1001 27.9972 18.9529 1.4 27.6289 -95.6631 -170.666
1002 28.9972 18.9529 1.4 28.447 -96.2649 21.409
1003 29.9972 18.9529 1.4 29.2763 -97.0537 82.7275
1004 -28.0028 19.9529 1.4 37.6796 -250 0
1005 -27.0028 19.9529 1.4 36.7917 -250 0
1006 -26.0028 19.9529 1.4 35.9096 -250 0
1007 -25.0028 19.9529 1.4 35.0339 -250 0
1008 -24.0028 19.9529 1.4 34.165 -250 0
1009 -23.0028 19.9529 1.4 33.3034 -250 0
1010 -22.0028 19.9529 1.4 32.4498 -250 0
1011 -21.0028 19.9529 1.4 31.6048 -250 0
1012 -20.0028 19.9529 1.4 30.769 -250 0
1013 -19.0028 19.9529 1.4 29.9434 -250 0
1014 -18.0028 19.9529 1.4 29.1287 -250 0
1015 -17.0028 19.9529 1.4 28.3258 -250 0
1016 -16.0028 19.9529 1.4 27.5359 -250 0
1017 -15.0028 19.9529 1.4 26.76 -250 0
1018 -14.0028 19.9529 1.4 25.9994 -250 0
1019 -13.0028 19.9529 1.4 25.2555 -250 0
1020 -12.0028 19.9529 1.4 24.5298 -250 0
1021 -11.0028 19.9529 1.4 23.824 -95.8619 65.1294
1022 -10.0028 19.9529 1.4 23.14 -80.1437 -81.8339
1023 -9.00282 19.9529 1.4 22.4795 -85.3819 133.916
1024 -8.00282 19.9529 1.4 21.845 -250 0
1025 -7.00282 19.9529 1.4 21.2385 -250 0
1026 -6.00282 19.9529 1.4 20.6627 -250 0
1027 -5.00282 19.9529 1.4 20.1201 -250 0
1028 -4.00282 19.9529 1.4 19.6135 -250 0
1029 -3.00282 19.9529 1.4 19.1458 -90.7852 -19.0173
1030 -2.00282 19.9529 1.4 18.7199 -79.3509 -166.013
1031 -1.00282 19.9529 1.4 18.3387 -79.308 10.752
1032 -0.00282 19.9529 1.4 18.005 -70.6206 54.722
1033 0.99718 19.9529 1.4 17.7215 -77.4884 -17.8036
1034 1.99718 19.9529 1.4 17.4907 -76.4044 -113.194
1035 2.99718 19.9529 1.4 17.3147 -93.6316 -125.344
1036 3.99718 19.9529 1.4 17.195 -106.787 -156.698
1037 4.99718 19.9529 1.4 17.1331 -88.4261 -15.4077
1038 5.99718 19.9529 1.4 17.1293 -76.6755 8.74242
1039 6.99718 19.9529 1.4 17.1839 -72.6377 43.3547
1040 7.99718 19.9529 1.4 17.2962 -80.2642 113.945
1041 8.99718 19.9529 1.4 17.4651 -79.5604 -15.0987
1042 9.99718 19.9529 1.4 17.6891 -84.0738 -154.608
1043 10.9972 19.9529 1.4 17.966 -71.4383 -118.188
1044 11.9972 19.9529 1.4 18.2934 -85.4738 -148.066
1045 12.9972 19.9529 1.4 18.6687 -64.8948 -159.804
1046 13.9972 19.9529 1.4 19.0891 -97.1853 -175.375
1047 14.9972 19.9529 1.4 19.5516 -96.2312 -4.64658
1048 15.9972 19.9529 1.4 20.0534 -86.9535 -119.363
1049 16.9972 19.9529 1.4 20.5915 -250 0
1050 17.9972 19.9529 1.4 21.1632 -250 0
1051 18.9972 19.9529 1.4 21.7659 -250 0
1052 19.9972 19.9529 1.4 22.397 -250 0
1053 20.9972 19.9529 1.4 23.0543 -250 0
1054 21.9972 19.9529 1.4 23.7354 -250 0
1055 22.9972 19.9529 1.4 24.4386 -99.0493 76.0322
1056 23.9972 19.9529 1.4 25.1618 -85.3192 136.567
1057 24.9972 19.9529 1.4 25.9034 -86.3444 136.017
1058 25.9972 19.9529 1.4 26.662 -114.091 -117.912
1059 26.9972 19.9529 1.4 27.436 -250 0
1060 27.9972 19.9529 1.4 28.2242 -99.7779 -147.929
1061 28.9972 19.9529 1.4 29.0255 -101.674 72.7768
1062 29.9972 19.9529 1.4 29.8387 -96.7132 -130.644
