#Rx
# X(m), Y(m), Z(m), Distance(m), Power (dBm) Phase (deg)
1 -28.0028 2.95289 1.4 25.0488 -91.5586 -95.0173
2 -27.0028 2.95289 1.4 24.2058 -96.6456 9.16058
3 -26.0028 2.95289 1.4 23.3753 -122.496 -157.965
4 -25.0028 2.95289 1.4 22.5584 -130.229 -79.81
5 -24.0028 2.95289 1.4 21.7569 -105.513 91.5337
6 -23.0028 2.95289 1.4 20.9725 -100.195 127.117
7 -22.0028 2.95289 1.4 20.2071 -93.4505 -127.573
8 -21.0028 2.95289 1.4 19.4629 -110.94 156.566
9 -20.0028 2.95289 1.4 18.7427 -127.912 -101.133
10 -19.0028 2.95289 1.4 18.049 -92.9254 -39.0737
11 -18.0028 2.95289 1.4 17.3853 -85.2918 -23.125
12 -17.0028 2.95289 1.4 16.755 -250 0
13 -16.0028 2.95289 1.4 16.162 -250 0
14 -15.0028 2.95289 1.4 15.6106 -250 0
15 -14.0028 2.95289 1.4 15.1053 -250 0
16 -13.0028 2.95289 1.4 14.651 -67.8534 -81.9986
17 -12.0028 2.95289 1.4 14.2525 -71.2571 30.0804
18 -11.0028 2.95289 1.4 13.9145 -75.8279 101.283
19 -10.0028 2.95289 1.4 13.6416 -73.8847 -9.7578
20 -9.00282 2.95289 1.4 13.4378 -74.6716 73.305
21 -8.00282 2.95289 1.4 13.3062 -59.3463 134.325
22 -7.00282 2.95289 1.4 13.249 -61.093 79.6713
23 -6.00282 2.95289 1.4 13.2671 -82.4618 -165.354
24 -5.00282 2.95289 1.4 13.3603 -79.2785 -13.6615
25 -4.00282 2.95289 1.4 13.527 -71.2771 145.947
26 -3.00282 2.95289 1.4 13.7644 -82.694 33.9923
27 -2.00282 2.95289 1.4 14.0691 -57.4338 86.9159
28 -1.00282 2.95289 1.4 14.4368 -67.0588 -135.605
29 -0.00282 2.95289 1.4 14.8628 -72.1886 44.3888
30 0.99718 2.95289 1.4 15.3422 -74.7471 85.979
31 1.99718 2.95289 1.4 15.8702 -69.379 -160.441
32 2.99718 2.95289 1.4 16.4421 -61.7408 51.5887
33 3.99718 2.95289 1.4 17.0536 -250 0
34 4.99718 2.95289 1.4 17.7004 -250 0
35 5.99718 2.95289 1.4 18.3789 -80.555 -58.2402
36 6.99718 2.95289 1.4 19.0858 -69.1099 -60.2174
37 7.99718 2.95289 1.4 19.8178 -63.2468 -78.9071
38 8.99718 2.95289 1.4 20.5725 -82.1641 -110.926
39 9.99718 2.95289 1.4 21.3473 -82.5421 149.635
40 10.9972 2.95289 1.4 22.1402 -67.0494 -132.63
41 11.9972 2.95289 1.4 22.9493 -68.4742 -0.239102
42 12.9972 2.95289 1.4 23.7729 -77.6996 178.541
43 13.9972 2.95289 1.4 24.6096 -250 0
44 14.9972 2.95289 1.4 25.458 -84.5516 -91.8818
45 15.9972 2.95289 1.4 26.3172 -81.077 80.1802
46 16.9972 2.95289 1.4 27.1859 -74.5661 -57.7154
47 17.9972 2.95289 1.4 28.0634 -250 0
48 18.9972 2.95289 1.4 28.9488 -250 0
49 19.9972 2.95289 1.4 29.8415 -250 0
50 20.9972 2.95289 1.4 30.7408 -98.6354 -25.7789
51 21.9972 2.95289 1.4 31.6461 -78.8606 -109.973
52 22.9972 2.95289 1.4 32.557 -250 0
53 23.9972 2.95289 1.4 33.473 -250 0
54 24.9972 2.95289 1.4 34.3936 -250 0
55 25.9972 2.95289 1.4 35.3186 -112.847 -36.5735
56 26.9972 2.95289 1.4 36.2475 -79.4293 -126.077
57 27.9972 2.95289 1.4 37.1801 -250 0
58 28.9972 2.95289 1.4 38.1162 -250 0
59 29.9972 2.95289 1.4 39.0554 -250 0
60 -28.0028 3.95289 1.4 24.5346 -118.263 -7.38558
61 -27.0028 3.95289 1.4 23.6734 -113.541 179.333
62 -26.0028 3.95289 1.4 22.8234 -93.0941 -24.5158
63 -25.0028 3.95289 1.4 21.9861 -129.835 89.019
64 -24.0028 3.95289 1.4 21.163 -109.22 -130.038
65 -23.0028 3.95289 1.4 20.3556 -101.48 -152.948
66 -22.0028 3.95289 1.4 19.5661 -99.0706 -172.655
67 -21.0028 3.95289 1.4 18.7966 -101.155 -47.5731
68 -20.0028 3.95289 1.4 18.0498 -105.839 50.6658
69 -19.0028 3.95289 1.4 17.3284 -94.0749 -137.865
70 -18.0028 3.95289 1.4 16.636 -250 0
71 -17.0028 3.95289 1.4 15.9761 -250 0
72 -16.0028 3.95289 1.4 15.3531 -250 0
73 -15.0028 3.95289 1.4 14.7715 -250 0
74 -14.0028 3.95289 1.4 14.2365 -250 0
75 -13.0028 3.95289 1.4 13.7535 -76.2762 -135.408
76 -12.0028 3.95289 1.4 13.3282 -75.3107 -177.896
77 -11.0028 3.95289 1.4 12.9661 -79.9887 150.174
78 -10.0028 3.95289 1.4 12.6729 -75.5122 47.8382
79 -9.00282 3.95289 1.4 12.4532 -68.8454 -51.9741
80 -8.00282 3.95289 1.4 12.3111 -60.2529 166.567
81 -7.00282 3.95289 1.4 12.2492 -60.8899 -178.799
82 -6.00282 3.95289 1.4 12.2688 -72.3177 -113.144
83 -5.00282 3.95289 1.4 12.3695 -71.7992 -0.223251
84 -4.00282 3.95289 1.4 12.5493 -72.9984 -133.494
85 -3.00282 3.95289 1.4 12.8049 -61.994 -164.563
86 -2.00282 3.95289 1.4 13.1319 -62.3518 -42.3953
87 -1.00282 3.95289 1.4 13.5251 -62.0367 -124.971
88 -0.00282 3.95289 1.4 13.9789 -64.2921 -63.1737
89 0.99718 3.95289 1.4 14.4876 -71.4546 108.244
90 1.99718 3.95289 1.4 15.0456 -61.0891 -113.058
91 2.99718 3.95289 1.4 15.6477 -61.3458 105.309
92 3.99718 3.95289 1.4 16.289 -72.4097 141.156
93 4.99718 3.95289 1.4 16.965 -79.3774 -10.0149
94 5.99718 3.95289 1.4 17.6718 -66.4986 140.584
95 6.99718 3.95289 1.4 18.4058 -64.1808 115.972
96 7.99718 3.95289 1.4 19.1639 -70.2411 -5.6967
97 8.99718 3.95289 1.4 19.9433 -83.1278 -104.621
98 9.99718 3.95289 1.4 20.7416 -79.5477 164.648
99 10.9972 3.95289 1.4 21.5568 -66.7479 169.651
100 11.9972 3.95289 1.4 22.387 -79.0891 -89.4476
101 12.9972 3.95289 1.4 23.2305 -104.293 -88.472
102 13.9972 3.95289 1.4 24.0861 -82.6027 -149.866
103 14.9972 3.95289 1.4 24.9523 -79.6821 109.207
104 15.9972 3.95289 1.4 25.8283 -73.7828 28.0016
105 16.9972 3.95289 1.4 26.7129 -250 0
106 17.9972 3.95289 1.4 27.6055 -250 0
107 18.9972 3.95289 1.4 28.5051 -94.0977 70.2344
108 19.9972 3.95289 1.4 29.4113 -98.6259 -5.47996
109 20.9972 3.95289 1.4 30.3233 -100.739 -4.69508
110 21.9972 3.95289 1.4 31.2407 -98.503 148.464
111 22.9972 3.95289 1.4 32.1631 -102.431 118.048
112 23.9972 3.95289 1.4 33.09 -103.054 126.053
113 24.9972 3.95289 1.4 34.021 -109.321 154.53
114 25.9972 3.95289 1.4 34.9558 -96.1415 91.4731
115 26.9972 3.95289 1.4 35.8941 -250 0
116 27.9972 3.95289 1.4 36.8357 -250 0
117 28.9972 3.95289 1.4 37.7803 -250 0
118 29.9972 3.95289 1.4 38.7276 -250 0
119 -28.0028 4.95289 1.4 24.0511 -120.567 -138.537
120 -27.0028 4.95289 1.4 23.1719 -107.613 -162.214
121 -26.0028 4.95289 1.4 22.3028 -104.147 93.8726
122 -25.0028 4.95289 1.4 21.4452 -91.9372 88.1908
123 -24.0028 4.95289 1.4 20.6004 -107.871 -29.626
124 -23.0028 4.95289 1.4 19.7702 -115.776 153.133
125 -22.0028 4.95289 1.4 18.9563 -121.002 -44.8213
126 -21.0028 4.95289 1.4 18.161 -109.745 12.4887
127 -20.0028 4.95289 1.4 17.3868 -90.3319 45.8371
128 -19.0028 4.95289 1.4 16.6368 -129.932 -83.5025
129 -18.0028 4.95289 1.4 15.9142 -250 0
130 -17.0028 4.95289 1.4 15.2231 -250 0
131 -16.0028 4.95289 1.4 14.5679 -250 0
132 -15.0028 4.95289 1.4 13.9537 -250 0
133 -14.0028 4.95289 1.4 13.386 -250 0
134 -13.0028 4.95289 1.4 12.8711 -67.9078 141.212
135 -12.0028 4.95289 1.4 12.4156 -83.9632 177.539
136 -11.0028 4.95289 1.4 12.0261 -70.8601 -173.581
137 -10.0028 4.95289 1.4 11.7093 -71.7488 170.91
138 -9.00282 4.95289 1.4 11.4712 -71.3989 -33.4601
139 -8.00282 4.95289 1.4 11.3168 -70.5627 110.464
140 -7.00282 4.95289 1.4 11.2495 -56.1634 -89.8207
141 -6.00282 4.95289 1.4 11.2708 -60.6052 -149.625
142 -5.00282 4.95289 1.4 11.3803 -65.3752 61.7401
143 -4.00282 4.95289 1.4 11.5755 -115.444 153.863
144 -3.00282 4.95289 1.4 11.8521 -68.7752 18.5132
145 -2.00282 4.95289 1.4 12.2047 -74.8572 145.784
146 -1.00282 4.95289 1.4 12.6267 -55.5143 155.236
147 -0.00282 4.95289 1.4 13.1117 -59.8926 -50.0069
148 0.99718 4.95289 1.4 13.6527 -61.1025 62.8991
149 1.99718 4.95289 1.4 14.2435 -75.0609 81.2393
150 2.99718 4.95289 1.4 14.8781 -70.7847 -7.05846
151 3.99718 4.95289 1.4 15.5512 -77.5577 -174.101
152 4.99718 4.95289 1.4 16.2579 -62.5612 0.402338
153 5.99718 4.95289 1.4 16.9941 -64.6392 -21.7519
154 6.99718 4.95289 1.4 17.7561 -75.3705 140.429
155 7.99718 4.95289 1.4 18.5408 -250 0
156 8.99718 4.95289 1.4 19.3453 -73.3949 170.835
157 9.99718 4.95289 1.4 20.1674 -74.8856 -173.928
158 10.9972 4.95289 1.4 21.0048 -89.6159 99.6678
159 11.9972 4.95289 1.4 21.856 -250 0
160 12.9972 4.95289 1.4 22.7193 -96.5091 123.072
161 13.9972 4.95289 1.4 23.5933 -83.1405 -161.905
162 14.9972 4.95289 1.4 24.4771 -250 0
163 15.9972 4.95289 1.4 25.3694 -250 0
164 16.9972 4.95289 1.4 26.2695 -250 0
165 17.9972 4.95289 1.4 27.1766 -105.815 123.025
166 18.9972 4.95289 1.4 28.09 -250 0
167 19.9972 4.95289 1.4 29.0091 -100.69 -144.855
168 20.9972 4.95289 1.4 29.9334 -250 0
169 21.9972 4.95289 1.4 30.8625 -250 0
170 22.9972 4.95289 1.4 31.7958 -250 0
171 23.9972 4.95289 1.4 32.7331 -93.7028 101.956
172 24.9972 4.95289 1.4 33.6739 -250 0
173 25.9972 4.95289 1.4 34.6181 -250 0
174 26.9972 4.95289 1.4 35.5654 -250 0
175 27.9972 4.95289 1.4 36.5154 -250 0
176 28.9972 4.95289 1.4 37.4681 -250 0
177 29.9972 4.95289 1.4 38.4231 -250 0
178 -28.0028 5.95289 1.4 23.6001 -126.199 4.94925
179 -27.0028 5.95289 1.4 22.7034 -115.284 63.733
180 -26.0028 5.95289 1.4 21.8157 -112.442 83.5103
181 -25.0028 5.95289 1.4 20.9381 -85.7954 -7.27882
182 -24.0028 5.95289 1.4 20.072 -99.5642 44.188
183 -23.0028 5.95289 1.4 19.2189 -115.871 -56.6175
184 -22.0028 5.95289 1.4 18.3806 -110.593 -152.547
185 -21.0028 5.95289 1.4 17.5593 -115.797 -131.665
186 -20.0028 5.95289 1.4 16.7573 -88.5188 -110.5
187 -19.0028 5.95289 1.4 15.9778 -91.5893 -176.609
188 -18.0028 5.95289 1.4 15.224 -250 0
189 -17.0028 5.95289 1.4 14.5 -250 0
190 -16.0028 5.95289 1.4 13.8105 -250 0
191 -15.0028 5.95289 1.4 13.161 -250 0
192 -14.0028 5.95289 1.4 12.5576 -250 0
193 -13.0028 5.95289 1.4 12.0072 -85.9855 -66.8283
194 -12.0028 5.95289 1.4 11.5176 -87.1038 13.571
195 -11.0028 5.95289 1.4 11.0966 -80.1413 -38.8432
196 -10.0028 5.95289 1.4 10.7525 -72.5524 119.284
197 -9.00282 5.95289 1.4 10.4927 -73.1147 -162.641
198 -8.00282 5.95289 1.4 10.3236 -65.1742 41.5354
199 -7.00282 5.95289 1.4 10.2498 -63.3982 -153.075
200 -6.00282 5.95289 1.4 10.2732 -59.1649 -70.8212
201 -5.00282 5.95289 1.4 10.3932 -72.4678 -140.408
202 -4.00282 5.95289 1.4 10.6066 -69.1406 -64.2284
203 -3.00282 5.95289 1.4 10.9078 -69.324 -129.979
204 -2.00282 5.95289 1.4 11.2899 -62.7389 -123.812
205 -1.00282 5.95289 1.4 11.7449 -73.5516 -16.292
206 -0.00282 5.95289 1.4 12.2647 -54.2061 -49.1687
207 0.99718 5.95289 1.4 12.8415 -65.1273 -95.2938
208 1.99718 5.95289 1.4 13.4679 -250 0
209 2.99718 5.95289 1.4 14.1374 -71.5483 50.728
210 3.99718 5.95289 1.4 14.844 -62.8715 -133.559
211 4.99718 5.95289 1.4 15.5829 -62.3879 169.392
212 5.99718 5.95289 1.4 16.3495 -73.5466 153.934
213 6.99718 5.95289 1.4 17.1402 -250 0
214 7.99718 5.95289 1.4 17.9518 -250 0
215 8.99718 5.95289 1.4 18.7816 -67.5421 132.972
216 9.99718 5.95289 1.4 19.6273 -80.8637 60.4433
217 10.9972 5.95289 1.4 20.4868 -89.4091 120.928
218 11.9972 5.95289 1.4 21.3586 -87.3118 -59.9575
219 12.9972 5.95289 1.4 22.2412 -86.1179 -56.0652
220 13.9972 5.95289 1.4 23.1334 -250 0
221 14.9972 5.95289 1.4 24.034 -250 0
222 15.9972 5.95289 1.4 24.9422 -250 0
223 16.9972 5.95289 1.4 25.8572 -250 0
224 17.9972 5.95289 1.4 26.7783 -90.0473 104.759
225 18.9972 5.95289 1.4 27.7048 -72.9998 35.8187
226 19.9972 5.95289 1.4 28.6363 -250 0
227 20.9972 5.95289 1.4 29.5722 -250 0
228 21.9972 5.95289 1.4 30.5123 -250 0
229 22.9972 5.95289 1.4 31.456 -250 0
230 23.9972 5.95289 1.4 32.4031 -105.879 -96.16
231 24.9972 5.95289 1.4 33.3533 -250 0
232 25.9972 5.95289 1.4 34.3063 -250 0
233 26.9972 5.95289 1.4 35.2619 -250 0
234 27.9972 5.95289 1.4 36.2199 -250 0
235 28.9972 5.95289 1.4 37.1801 -250 0
236 29.9972 5.95289 1.4 38.1424 -250 0
237 -28.0028 6.95289 1.4 23.1834 -125.234 66.4289
238 -27.0028 6.95289 1.4 22.2699 -98.8964 -163.926
239 -26.0028 6.95289 1.4 21.3642 -99.9804 102.514
240 -25.0028 6.95289 1.4 20.4673 -94.5825 -96.6052
241 -24.0028 6.95289 1.4 19.5804 -93.4554 -135.324
242 -23.0028 6.95289 1.4 18.7049 -108.304 118.756
243 -22.0028 6.95289 1.4 17.8425 -113.584 -159.679
244 -21.0028 6.95289 1.4 16.9951 -103.13 -12.4077
245 -20.0028 6.95289 1.4 16.1653 -89.3776 82.7116
246 -19.0028 6.95289 1.4 15.3557 -83.918 31.1771
247 -18.0028 6.95289 1.4 14.5697 -250 0
248 -17.0028 6.95289 1.4 13.8115 -250 0
249 -16.0028 6.95289 1.4 13.0858 -250 0
250 -15.0028 6.95289 1.4 12.3983 -250 0
251 -14.0028 6.95289 1.4 11.7558 -250 0
252 -13.0028 6.95289 1.4 11.166 -77.9547 172.657
253 -12.0028 6.95289 1.4 10.6377 -74.941 -12.0473
254 -11.0028 6.95289 1.4 10.1805 -71.7746 -13.4555
255 -10.0028 6.95289 1.4 9.80421 -74.5553 171.831
256 -9.00282 6.95289 1.4 9.51857 -70.2865 -31.7794
257 -8.00282 6.95289 1.4 9.33188 -66.6004 -30.718
258 -7.00282 6.95289 1.4 9.25012 -74.9363 96.7415
259 -6.00282 6.95289 1.4 9.27606 -55.9152 32.4241
260 -5.00282 6.95289 1.4 9.40883 -58.0316 -18.9876
261 -4.00282 6.95289 1.4 9.644 -82.801 113.89
262 -3.00282 6.95289 1.4 9.97434 -80.0679 -85.4676
263 -2.00282 6.95289 1.4 10.3908 -67.2838 -94.7883
264 -1.00282 6.95289 1.4 10.8834 -67.5239 -123.349
265 -0.00282 6.95289 1.4 11.4424 -58.674 154.011
266 0.99718 6.95289 1.4 12.0586 -78.7433 -7.21961
267 1.99718 6.95289 1.4 12.7236 -76.0457 -169.42
268 2.99718 6.95289 1.4 13.4303 -60.9582 30.6704
269 3.99718 6.95289 1.4 14.1722 -63.8463 27.7409
270 4.99718 6.95289 1.4 14.9443 -250 0
271 5.99718 6.95289 1.4 15.7421 -73.8026 -40.6178
272 6.99718 6.95289 1.4 16.5618 -76.1094 -48.7122
273 7.99718 6.95289 1.4 17.4004 -64.3981 -9.14411
274 8.99718 6.95289 1.4 18.2553 -68.1862 150.524
275 9.99718 6.95289 1.4 19.1242 -72.5994 113.092
276 10.9972 6.95289 1.4 20.0054 -76.0938 -43.8416
277 11.9972 6.95289 1.4 20.8973 -82.8348 -31.328
278 12.9972 6.95289 1.4 21.7986 -73.0942 123.085
279 13.9972 6.95289 1.4 22.7081 -250 0
280 14.9972 6.95289 1.4 23.625 -250 0
281 15.9972 6.95289 1.4 24.5483 -250 0
282 16.9972 6.95289 1.4 25.4775 -250 0
283 17.9972 6.95289 1.4 26.4118 -88.7797 1.69422
284 18.9972 6.95289 1.4 27.3507 -88.4227 -51.7539
285 19.9972 6.95289 1.4 28.2939 -82.274 -125.858
286 20.9972 6.95289 1.4 29.2408 -83.4055 57.0934
287 21.9972 6.95289 1.4 30.1911 -250 0
288 22.9972 6.95289 1.4 31.1446 -84.8929 -140.598
289 23.9972 6.95289 1.4 32.1009 -82.0801 42.2841
290 24.9972 6.95289 1.4 33.0598 -250 0
291 25.9972 6.95289 1.4 34.021 -250 0
292 26.9972 6.95289 1.4 34.9844 -250 0
293 27.9972 6.95289 1.4 35.9498 -250 0
294 28.9972 6.95289 1.4 36.9171 -250 0
295 29.9972 6.95289 1.4 37.886 -250 0
296 -28.0028 7.95289 1.4 22.803 -95.7047 162.237
297 -27.0028 7.95289 1.4 21.8737 -99.6235 -43.0545
298 -26.0028 7.95289 1.4 20.9508 -250 0
299 -25.0028 7.95289 1.4 20.0354 -250 0
300 -24.0028 7.95289 1.4 19.1285 -123.994 -105.522
301 -23.0028 7.95289 1.4 18.2313 -89.7992 -77.5239
302 -22.0028 7.95289 1.4 17.3453 -100.597 -150.106
303 -21.0028 7.95289 1.4 16.4725 -122.151 68.6567
304 -20.0028 7.95289 1.4 15.6148 -125.003 -147.346
305 -19.0028 7.95289 1.4 14.7751 -101.961 -62.5417
306 -18.0028 7.95289 1.4 13.9565 -80.0057 -177.477
307 -17.0028 7.95289 1.4 13.163 -250 0
308 -16.0028 7.95289 1.4 12.3994 -250 0
309 -15.0028 7.95289 1.4 11.6716 -250 0
310 -14.0028 7.95289 1.4 10.9867 -250 0
311 -13.0028 7.95289 1.4 10.3531 -58.3641 111.088
312 -12.0028 7.95289 1.4 9.78101 -76.3513 157.05
313 -11.0028 7.95289 1.4 9.28164 -250 0
314 -10.0028 7.95289 1.4 8.86733 -250 0
315 -9.00282 7.95289 1.4 8.55045 -250 0
316 -8.00282 7.95289 1.4 8.34212 -58.7825 155.464
317 -7.00282 7.95289 1.4 8.25056 -85.0436 -92.1999
318 -6.00282 7.95289 1.4 8.27964 -84.5638 124.019
319 -5.00282 7.95289 1.4 8.42811 -85.4187 -14.9043
320 -4.00282 7.95289 1.4 8.68987 -85.4386 -74.5351
321 -3.00282 7.95289 1.4 9.05508 -67.5541 -20.6413
322 -2.00282 7.95289 1.4 9.51185 -75.7719 -37.1058
323 -1.00282 7.95289 1.4 10.0477 -90.0554 -157.7
324 -0.00282 7.95289 1.4 10.6507 -87.7899 83.1015
325 0.99718 7.95289 1.4 11.3101 -72.6396 16.5378
326 1.99718 7.95289 1.4 12.0166 -59.3732 -126.889
327 2.99718 7.95289 1.4 12.7624 -81.488 0.261712
328 3.99718 7.95289 1.4 13.541 -250 0
329 4.99718 7.95289 1.4 14.3471 -250 0
330 5.99718 7.95289 1.4 15.1763 -82.9848 36.334
331 6.99718 7.95289 1.4 16.025 -60.9768 -154.513
332 7.99718 7.95289 1.4 16.8903 -74.5509 -115.354
333 8.99718 7.95289 1.4 17.7697 -250 0
334 9.99718 7.95289 1.4 18.6613 -250 0
335 10.9972 7.95289 1.4 19.5633 -83.4854 169.281
336 11.9972 7.95289 1.4 20.4745 -74.4233 -29.4683
337 12.9972 7.95289 1.4 21.3936 -82.367 -127.853
338 13.9972 7.95289 1.4 22.3196 -250 0
339 14.9972 7.95289 1.4 23.2518 -250 0
340 15.9972 7.95289 1.4 24.1894 -250 0
341 16.9972 7.95289 1.4 25.1318 -89.129 -164.681
342 17.9972 7.95289 1.4 26.0785 -250 0
343 18.9972 7.95289 1.4 27.0291 -250 0
344 19.9972 7.95289 1.4 27.983 -250 0
345 20.9972 7.95289 1.4 28.9401 -95.0769 147.45
346 21.9972 7.95289 1.4 29.9 -74.9444 175.731
347 22.9972 7.95289 1.4 30.8625 -84.1979 -152.912
348 23.9972 7.95289 1.4 31.8273 -96.3039 -5.28804
349 24.9972 7.95289 1.4 32.7941 -250 0
350 25.9972 7.95289 1.4 33.7629 -81.105 -33.7505
351 26.9972 7.95289 1.4 34.7335 -73.6438 115.685
352 27.9972 7.95289 1.4 35.7057 -250 0
353 28.9972 7.95289 1.4 36.6794 -250 0
354 29.9972 7.95289 1.4 37.6545 -250 0
355 -28.0028 8.95289 1.4 22.4607 -91.5367 -36.641
356 -27.0028 8.95289 1.4 21.5166 -87.0268 28.9302
357 -26.0028 8.95289 1.4 20.5778 -100.955 53.2403
358 -25.0028 8.95289 1.4 19.645 -92.9424 -40.6896
359 -24.0028 8.95289 1.4 18.7191 -84.9193 127.052
360 -23.0028 8.95289 1.4 17.8013 -250 0
361 -22.0028 8.95289 1.4 16.8928 -97.8066 -147.753
362 -21.0028 8.95289 1.4 15.9953 -117.238 125.012
363 -20.0028 8.95289 1.4 15.1106 -101.087 79.9074
364 -19.0028 8.95289 1.4 14.2411 -87.9885 -104.919
365 -18.0028 8.95289 1.4 13.39 -104.877 -116.201
366 -17.0028 8.95289 1.4 12.5607 -250 0
367 -16.0028 8.95289 1.4 11.7581 -250 0
368 -15.0028 8.95289 1.4 10.9879 -250 0
369 -14.0028 8.95289 1.4 10.2574 -250 0
370 -13.0028 8.95289 1.4 9.57572 -60.2526 -58.1158
371 -12.0028 8.95289 1.4 8.95406 -86.134 -57.3616
372 -11.0028 8.95289 1.4 8.40571 -84.3993 131.367
373 -10.0028 8.95289 1.4 7.94585 -250 0
374 -9.00282 8.95289 1.4 7.59061 -73.1011 -177.675
375 -8.00282 8.95289 1.4 7.35514 -55.8572 169.757
376 -7.00282 8.95289 1.4 7.25112 -73.187 -31.3505
377 -6.00282 8.95289 1.4 7.28419 -79.5914 -157.021
378 -5.00282 8.95289 1.4 7.45253 -89.2212 -56.6319
379 -4.00282 8.95289 1.4 7.74732 -85.068 -69.4263
380 -3.00282 8.95289 1.4 8.15485 -63.0553 23.0392
381 -2.00282 8.95289 1.4 8.65923 -82.1716 26.97
382 -1.00282 8.95289 1.4 9.24462 -105.382 117.837
383 -0.00282 8.95289 1.4 9.89665 -88.7663 133.569
384 0.99718 8.95289 1.4 10.603 -59.658 98.279
385 1.99718 8.95289 1.4 11.3536 -71.765 -79.32
386 2.99718 8.95289 1.4 12.1403 -73.1346 -68.634
387 3.99718 8.95289 1.4 12.9563 -250 0
388 4.99718 8.95289 1.4 13.7966 -75.8127 153.094
389 5.99718 8.95289 1.4 14.657 -61.1696 18.4014
390 6.99718 8.95289 1.4 15.5341 -82.0671 -83.4608
391 7.99718 8.95289 1.4 16.4253 -78.4199 -33.2623
392 8.99718 8.95289 1.4 17.3283 -84.5307 93.7884
393 9.99718 8.95289 1.4 18.2415 -250 0
394 10.9972 8.95289 1.4 19.1633 -71.6319 179.076
395 11.9972 8.95289 1.4 20.0926 -250 0
396 12.9972 8.95289 1.4 21.0284 -74.5666 -114.584
397 13.9972 8.95289 1.4 21.9698 -250 0
398 14.9972 8.95289 1.4 22.9162 -250 0
399 15.9972 8.95289 1.4 23.867 -250 0
400 16.9972 8.95289 1.4 24.8217 -250 0
401 17.9972 8.95289 1.4 25.7798 -250 0
402 18.9972 8.95289 1.4 26.7409 -250 0
403 19.9972 8.95289 1.4 27.7048 -83.1297 -68.4465
404 20.9972 8.95289 1.4 28.6712 -86.1432 -110.024
405 21.9972 8.95289 1.4 29.6398 -95.6435 47.448
406 22.9972 8.95289 1.4 30.6105 -97.9158 -89.5625
407 23.9972 8.95289 1.4 31.5829 -83.0934 -113.267
408 24.9972 8.95289 1.4 32.5571 -82.1035 55.0279
409 25.9972 8.95289 1.4 33.5327 -76.3525 -84.6276
410 26.9972 8.95289 1.4 34.5098 -250 0
411 27.9972 8.95289 1.4 35.4881 -250 0
412 28.9972 8.95289 1.4 36.4676 -250 0
413 29.9972 8.95289 1.4 37.4482 -250 0
414 -28.0028 9.95289 1.4 22.1583 -250 0
415 -27.0028 9.95289 1.4 21.2007 -250 0
416 -26.0028 9.95289 1.4 20.2473 -91.4546 94.231
417 -25.0028 9.95289 1.4 19.2985 -78.3797 -112.348
418 -24.0028 9.95289 1.4 18.3552 -250 0
419 -23.0028 9.95289 1.4 17.4182 -250 0
420 -22.0028 9.95289 1.4 16.4886 -250 0
421 -21.0028 9.95289 1.4 15.5678 -250 0
422 -20.0028 9.95289 1.4 14.6573 -250 0
423 -19.0028 9.95289 1.4 13.7593 -250 0
424 -18.0028 9.95289 1.4 12.8763 -250 0
425 -17.0028 9.95289 1.4 12.0116 -250 0
426 -16.0028 9.95289 1.4 11.1696 -250 0
427 -15.0028 9.95289 1.4 10.3557 -250 0
428 -14.0028 9.95289 1.4 9.5771 -250 0
429 -13.0028 9.95289 1.4 8.84316 -250 0
430 -12.0028 9.95289 1.4 8.16592 -57.9359 140.302
431 -11.0028 9.95289 1.4 7.56062 -79.5098 10.6191
432 -10.0028 9.95289 1.4 7.04583 -250 0
433 -9.00282 9.95289 1.4 6.64262 -68.8312 -11.4572
434 -8.00282 9.95289 1.4 6.37221 -72.4549 128.35
435 -7.00282 9.95289 1.4 6.25186 -99.0552 -135.074
436 -6.00282 9.95289 1.4 6.29019 -76.5671 -109.325
437 -5.00282 9.95289 1.4 6.48438 -92.515 -104.355
438 -4.00282 9.95289 1.4 6.82114 -82.3862 -7.78432
439 -3.00282 9.95289 1.4 7.28071 -84.0217 143.248
440 -2.00282 9.95289 1.4 7.84152 -72.5701 38.6546
441 -1.00282 9.95289 1.4 8.48352 -75.6432 -123.323
442 -0.00282 9.95289 1.4 9.18971 -81.7274 86.5947
443 0.99718 9.95289 1.4 9.94643 -69.2176 126.3
444 1.99718 9.95289 1.4 10.743 -88.479 -49.6079
445 2.99718 9.95289 1.4 11.5712 -76.0301 -14.7254
446 3.99718 9.95289 1.4 12.4247 -68.9204 118.055
447 4.99718 9.95289 1.4 13.2987 -65.3373 -120.76
448 5.99718 9.95289 1.4 14.1893 -77.7506 158.83
449 6.99718 9.95289 1.4 15.0936 -250 0
450 7.99718 9.95289 1.4 16.0093 -75.8382 121.256
451 8.99718 9.95289 1.4 16.9345 -80.1021 136.913
452 9.99718 9.95289 1.4 17.8678 -250 0
453 10.9972 9.95289 1.4 18.8079 -250 0
454 11.9972 9.95289 1.4 19.754 -250 0
455 12.9972 9.95289 1.4 20.7051 -250 0
456 13.9972 9.95289 1.4 21.6606 -250 0
457 14.9972 9.95289 1.4 22.6199 -250 0
458 15.9972 9.95289 1.4 23.5827 -250 0
459 16.9972 9.95289 1.4 24.5484 -250 0
460 17.9972 9.95289 1.4 25.5167 -82.3184 58.6635
461 18.9972 9.95289 1.4 26.4874 -90.2285 -78.1364
462 19.9972 9.95289 1.4 27.4602 -93.7671 15.0156
463 20.9972 9.95289 1.4 28.4349 -75.1317 27.7229
464 21.9972 9.95289 1.4 29.4113 -250 0
465 22.9972 9.95289 1.4 30.3893 -250 0
466 23.9972 9.95289 1.4 31.3686 -93.2698 92.2569
467 24.9972 9.95289 1.4 32.3492 -250 0
468 25.9972 9.95289 1.4 33.3309 -250 0
469 26.9972 9.95289 1.4 34.3137 -250 0
470 27.9972 9.95289 1.4 35.2975 -250 0
471 28.9972 9.95289 1.4 36.2821 -250 0
472 29.9972 9.95289 1.4 37.2676 -250 0
473 -28.0028 10.9529 1.4 21.8974 -250 0
474 -27.0028 10.9529 1.4 20.9279 -250 0
475 -26.0028 10.9529 1.4 19.9614 -250 0
476 -25.0028 10.9529 1.4 18.9984 -97.5438 119.405
477 -24.0028 10.9529 1.4 18.0394 -250 0
478 -23.0028 10.9529 1.4 17.0851 -250 0
479 -22.0028 10.9529 1.4 16.1364 -250 0
480 -21.0028 10.9529 1.4 15.1942 -250 0
481 -20.0028 10.9529 1.4 14.2599 -250 0
482 -19.0028 10.9529 1.4 13.3351 -250 0
483 -18.0028 10.9529 1.4 12.422 -250 0
484 -17.0028 10.9529 1.4 11.5233 -250 0
485 -16.0028 10.9529 1.4 10.6427 -250 0
486 -15.0028 10.9529 1.4 9.78505 -250 0
487 -14.0028 10.9529 1.4 8.957 -250 0
488 -13.0028 10.9529 1.4 8.16753 -250 0
489 -12.0028 10.9529 1.4 7.42895 -250 0
490 -11.0028 10.9529 1.4 6.75796 -56.5249 -32.1002
491 -10.0028 10.9529 1.4 6.17663 -73.1539 -96.9042
492 -9.00282 10.9529 1.4 5.71239 -250 0
493 -8.00282 10.9529 1.4 5.39557 -81.4943 152.138
494 -7.00282 10.9529 1.4 5.25289 -69.2024 -152.121
495 -6.00282 10.9529 1.4 5.29845 -81.967 76.6175
496 -5.00282 10.9529 1.4 5.52759 -95.4367 -155.33
497 -4.00282 10.9529 1.4 5.91904 -71.3276 165.619
498 -3.00282 10.9529 1.4 6.44327 -83.3134 -78.2307
499 -2.00282 10.9529 1.4 7.07082 -80.7016 50.5098
500 -1.00282 10.9529 1.4 7.77671 -92.4425 -21.5866
501 -0.00282 10.9529 1.4 8.54154 -67.6234 15.4058
502 0.99718 10.9529 1.4 9.35086 -88.022 -88.7561
503 1.99718 10.9529 1.4 10.1941 -250 0
504 2.99718 10.9529 1.4 11.0635 -92.1324 -132.089
505 3.99718 10.9529 1.4 11.9533 -65.0249 86.099
506 4.99718 10.9529 1.4 12.8593 -77.6619 -10.3636
507 5.99718 10.9529 1.4 13.7783 -250 0
508 6.99718 10.9529 1.4 14.7079 -250 0
509 7.99718 10.9529 1.4 15.6462 -86.0026 -158.568
510 8.99718 10.9529 1.4 16.5917 -77.9852 -56.4386
511 9.99718 10.9529 1.4 17.5432 -80.5511 -88.3346
512 10.9972 10.9529 1.4 18.4999 -250 0
513 11.9972 10.9529 1.4 19.4609 -250 0
514 12.9972 10.9529 1.4 20.4257 -250 0
515 13.9972 10.9529 1.4 21.3936 -250 0
516 14.9972 10.9529 1.4 22.3645 -250 0
517 15.9972 10.9529 1.4 23.3377 -250 0
518 16.9972 10.9529 1.4 24.3132 -250 0
519 17.9972 10.9529 1.4 25.2905 -88.9302 64.443
520 18.9972 10.9529 1.4 26.2696 -102.389 -162.34
521 19.9972 10.9529 1.4 27.2502 -81.5585 3.98857
522 20.9972 10.9529 1.4 28.2321 -250 0
523 21.9972 10.9529 1.4 29.2153 -250 0
524 22.9972 10.9529 1.4 30.1996 -250 0
525 23.9972 10.9529 1.4 31.1849 -250 0
526 24.9972 10.9529 1.4 32.171 -250 0
527 25.9972 10.9529 1.4 33.1581 -250 0
528 26.9972 10.9529 1.4 34.1458 -250 0
529 27.9972 10.9529 1.4 35.1343 -250 0
530 28.9972 10.9529 1.4 36.1234 -250 0
531 29.9972 10.9529 1.4 37.1131 -250 0
532 -28.0028 11.9529 1.4 21.6796 -250 0
533 -27.0028 11.9529 1.4 20.6999 -88.1777 -30.1405
534 -26.0028 11.9529 1.4 19.7222 -75.1355 -71.1909
535 -25.0028 11.9529 1.4 18.7469 -68.678 108.552
536 -24.0028 11.9529 1.4 17.7744 -250 0
537 -23.0028 11.9529 1.4 16.805 -78.5218 -137.078
538 -22.0028 11.9529 1.4 15.8395 -69.7465 -104.957
539 -21.0028 11.9529 1.4 14.8785 -71.0521 29.2857
540 -20.0028 11.9529 1.4 13.923 -65.6393 -33.7816
541 -19.0028 11.9529 1.4 12.9743 -69.1342 -122.423
542 -18.0028 11.9529 1.4 12.0338 -67.0286 106.985
543 -17.0028 11.9529 1.4 11.1037 -59.7954 141.148
544 -16.0028 11.9529 1.4 10.1869 -61.048 127.112
545 -15.0028 11.9529 1.4 9.28731 -60.8385 59.8557
546 -14.0028 11.9529 1.4 8.4104 -78.1901 175.56
547 -13.0028 11.9529 1.4 7.5641 -77.6274 27.8022
548 -12.0028 11.9529 1.4 6.75991 -64.5742 39.6178
549 -11.0028 11.9529 1.4 6.01474 -64.974 85.4359
550 -10.0028 11.9529 1.4 5.3533 -65.8093 -88.5023
551 -9.00282 11.9529 1.4 4.81025 -61.0071 -74.4426
552 -8.00282 11.9529 1.4 4.42936 -65.3189 -7.62079
553 -7.00282 11.9529 1.4 4.2544 -47.0585 28.3842
554 -6.00282 11.9529 1.4 4.31053 -53.0257 -87.3756
555 -5.00282 11.9529 1.4 4.58927 -45.6679 106.964
556 -4.00282 11.9529 1.4 5.05392 -46.646 152.59
557 -3.00282 11.9529 1.4 5.65887 -48.2014 -176.812
558 -2.00282 11.9529 1.4 6.36424 -52.041 -101.915
559 -1.00282 11.9529 1.4 7.14032 -55.1567 142.031
560 -0.00282 11.9529 1.4 7.96649 -52.8619 -133.786
561 0.99718 11.9529 1.4 8.82868 -51.449 154.701
562 1.99718 11.9529 1.4 9.71732 -58.9727 -31.2935
563 2.99718 11.9529 1.4 10.6258 -60.6884 166.415
564 3.99718 11.9529 1.4 11.5494 -56.7409 -138.229
565 4.99718 11.9529 1.4 12.4847 -53.1579 -108.21
566 5.99718 11.9529 1.4 13.4294 -63.1499 -153.532
567 6.99718 11.9529 1.4 14.3816 -74.6288 -58.7562
568 7.99718 11.9529 1.4 15.3398 -62.6401 -64.5777
569 8.99718 11.9529 1.4 16.3031 -70.3119 11.4947
570 9.99718 11.9529 1.4 17.2706 -71.6747 -164.786
571 10.9972 11.9529 1.4 18.2415 -73.4279 128.341
572 11.9972 11.9529 1.4 19.2155 -68.1939 -103.49
573 12.9972 11.9529 1.4 20.1919 -67.268 -114.616
574 13.9972 11.9529 1.4 21.1706 -64.4574 159.224
575 14.9972 11.9529 1.4 22.1512 -62.2697 -6.46427
576 15.9972 11.9529 1.4 23.1334 -66.7927 -126.877
577 16.9972 11.9529 1.4 24.1172 -82.1114 75.8465
578 17.9972 11.9529 1.4 25.1021 -77.9719 69.6654
579 18.9972 11.9529 1.4 26.0883 -72.0613 67.6827
580 19.9972 11.9529 1.4 27.0754 -79.8863 -108.464
581 20.9972 11.9529 1.4 28.0635 -250 0
582 21.9972 11.9529 1.4 29.0524 -250 0
583 22.9972 11.9529 1.4 30.042 -82.1285 -171.184
584 23.9972 11.9529 1.4 31.0323 -77.3917 -137.922
585 24.9972 11.9529 1.4 32.0232 -89.7201 -64.561
586 25.9972 11.9529 1.4 33.0146 -250 0
587 26.9972 11.9529 1.4 34.0065 -250 0
588 27.9972 11.9529 1.4 34.9989 -250 0
589 28.9972 11.9529 1.4 35.9917 -250 0
590 29.9972 11.9529 1.4 36.9849 -250 0
591 -28.0028 12.9529 1.4 21.5061 -66.4015 162.728
592 -27.0028 12.9529 1.4 20.5181 -72.425 -146.222
593 -26.0028 12.9529 1.4 19.5313 -96.5254 134.12
594 -25.0028 12.9529 1.4 18.546 -100.9 -96.4253
595 -24.0028 12.9529 1.4 17.5623 -71.7712 -139.177
596 -23.0028 12.9529 1.4 16.5806 -65.2619 -56.7044
597 -22.0028 12.9529 1.4 15.6012 -71.6544 29.3868
598 -21.0028 12.9529 1.4 14.6245 -79.6417 116.265
599 -20.0028 12.9529 1.4 13.6513 -67.9179 88.338
600 -19.0028 12.9529 1.4 12.6822 -59.7852 110.813
601 -18.0028 12.9529 1.4 11.7183 -57.7757 165.901
602 -17.0028 12.9529 1.4 10.761 -64.9884 -142.332
603 -16.0028 12.9529 1.4 9.81226 -64.6519 -98.4302
604 -15.0028 12.9529 1.4 8.87475 -66.1737 -51.9458
605 -14.0028 12.9529 1.4 7.95248 -71.6627 19.1977
606 -13.0028 12.9529 1.4 7.05143 -58.7012 76.3968
607 -12.0028 12.9529 1.4 6.18089 -59.3752 33.8745
608 -11.0028 12.9529 1.4 5.35576 -62.4667 -25.0184
609 -10.0028 12.9529 1.4 4.60053 -79.4314 36.4937
610 -9.00282 12.9529 1.4 3.95545 -81.9223 -77.006
611 -8.00282 12.9529 1.4 3.48228 -60.6995 -39.8963
612 -7.00282 12.9529 1.4 3.25684 -46.7077 91.0299
613 -6.00282 12.9529 1.4 3.32982 -41.9824 -143.651
614 -5.00282 12.9529 1.4 3.68353 -43.1969 -58.628
615 -4.00282 12.9529 1.4 4.24843 -45.7534 47.815
616 -3.00282 12.9529 1.4 4.95276 -47.244 131.165
617 -2.00282 12.9529 1.4 5.74548 -51.4623 -61.5768
618 -1.00282 12.9529 1.4 6.59479 -54.0204 -78.6354
619 -0.00282 12.9529 1.4 7.48144 -54.6637 135.956
620 0.99718 12.9529 1.4 8.39361 -60.2039 163.677
621 1.99718 12.9529 1.4 9.32381 -56.4191 -117.517
622 2.99718 12.9529 1.4 10.2671 -57.326 134.699
623 3.99718 12.9529 1.4 11.2203 -71.4955 -146.003
624 4.99718 12.9529 1.4 12.181 -67.5299 134.778
625 5.99718 12.9529 1.4 13.1475 -71.268 90.9979
626 6.99718 12.9529 1.4 14.1187 -55.0936 105.517
627 7.99718 12.9529 1.4 15.0936 -66.2045 2.39263
628 8.99718 12.9529 1.4 16.0717 -71.9897 42.9616
629 9.99718 12.9529 1.4 17.0522 -69.6971 -77.8221
630 10.9972 12.9529 1.4 18.035 -77.5523 -113.565
631 11.9972 12.9529 1.4 19.0195 -58.2577 -91.1273
632 12.9972 12.9529 1.4 20.0055 -63.313 135.166
633 13.9972 12.9529 1.4 20.9929 -79.6745 -88.4292
634 14.9972 12.9529 1.4 21.9814 -81.1782 94.6829
635 15.9972 12.9529 1.4 22.9709 -80.6413 -0.388394
636 16.9972 12.9529 1.4 23.9613 -65.3488 -87.048
637 17.9972 12.9529 1.4 24.9525 -68.622 -68.5714
638 18.9972 12.9529 1.4 25.9443 -68.4911 -79.8142
639 19.9972 12.9529 1.4 26.9367 -67.3878 -103.152
640 20.9972 12.9529 1.4 27.9297 -71.2955 -142.246
641 21.9972 12.9529 1.4 28.9231 -74.151 56.5067
642 22.9972 12.9529 1.4 29.917 -73.0415 60.4023
643 23.9972 12.9529 1.4 30.9113 -250 0
644 24.9972 12.9529 1.4 31.906 -89.2554 -17.1647
645 25.9972 12.9529 1.4 32.9009 -82.426 -13.6051
646 26.9972 12.9529 1.4 33.8962 -72.2573 -70.627
647 27.9972 12.9529 1.4 34.8917 -85.6562 20.3314
648 28.9972 12.9529 1.4 35.8875 -250 0
649 29.9972 12.9529 1.4 36.8835 -250 0
650 -28.0028 13.9529 1.4 21.378 -99.3935 -44.5501
651 -27.0028 13.9529 1.4 20.3838 -103.679 135.076
652 -26.0028 13.9529 1.4 19.3902 -250 0
653 -25.0028 13.9529 1.4 18.3973 -250 0
654 -24.0028 13.9529 1.4 17.4052 -75.5021 18.7206
655 -23.0028 13.9529 1.4 16.4141 -87.5861 -104.169
656 -22.0028 13.9529 1.4 15.4241 -73.3681 112.643
657 -21.0028 13.9529 1.4 14.4355 -68.4513 -5.96472
658 -20.0028 13.9529 1.4 13.4486 -66.339 68.0114
659 -19.0028 13.9529 1.4 12.4638 -69.1477 6.60606
660 -18.0028 13.9529 1.4 11.4816 -250 0
661 -17.0028 13.9529 1.4 10.5027 -73.1955 -29.3339
662 -16.0028 13.9529 1.4 9.52825 -73.8521 -172.143
663 -15.0028 13.9529 1.4 8.55969 -75.9633 -24.5725
664 -14.0028 13.9529 1.4 7.59928 -67.4696 24.1183
665 -13.0028 13.9529 1.4 6.65054 -77.9787 -17.4339
666 -12.0028 13.9529 1.4 5.71931 -84.6181 175.763
667 -11.0028 13.9529 1.4 4.81572 -62.1832 -91.5342
668 -10.0028 13.9529 1.4 3.95877 -250 0
669 -9.00282 13.9529 1.4 3.18632 -56.8767 -12.8481
670 -8.00282 13.9529 1.4 2.57552 -60.4551 -82.8182
671 -7.00282 13.9529 1.4 2.26142 -38.09 130.124
672 -6.00282 13.9529 1.4 2.36532 -40.0033 -173.894
673 -5.00282 13.9529 1.4 2.84174 -45.8632 -145.014
674 -4.00282 13.9529 1.4 3.54347 -45.8999 -12.1437
675 -3.00282 13.9529 1.4 4.36313 -42.9977 71.3425
676 -2.00282 13.9529 1.4 5.24572 -53.882 113.417
677 -1.00282 13.9529 1.4 6.16428 -71.0932 -13.6598
678 -0.00282 13.9529 1.4 7.10486 -65.2679 7.0017
679 0.99718 13.9529 1.4 8.05976 -68.3562 -46.9458
680 1.99718 13.9529 1.4 9.02444 -72.975 27.9583
681 2.99718 13.9529 1.4 9.99606 -59.8925 88.6318
682 3.99718 13.9529 1.4 10.9728 -61.3927 -56.1456
683 4.99718 13.9529 1.4 11.9534 -61.5134 100.814
684 5.99718 13.9529 1.4 12.9369 -75.7899 -14.0674
685 6.99718 13.9529 1.4 13.9228 -85.5268 -99.9899
686 7.99718 13.9529 1.4 14.9106 -66.0807 -82.7707
687 8.99718 13.9529 1.4 15.8999 -66.14 -9.64241
688 9.99718 13.9529 1.4 16.8904 -60.7116 12.0248
689 10.9972 13.9529 1.4 17.882 -68.3358 -51.7068
690 11.9972 13.9529 1.4 18.8745 -250 0
691 12.9972 13.9529 1.4 19.8678 -70.3584 69.6947
692 13.9972 13.9529 1.4 20.8617 -93.0312 37.4998
693 14.9972 13.9529 1.4 21.8561 -72.1348 170.506
694 15.9972 13.9529 1.4 22.8511 -75.4096 -164.803
695 16.9972 13.9529 1.4 23.8464 -250 0
696 17.9972 13.9529 1.4 24.8421 -77.8931 -175.163
697 18.9972 13.9529 1.4 25.8382 -81.6405 -105.265
698 19.9972 13.9529 1.4 26.8346 -95.9397 24.1372
699 20.9972 13.9529 1.4 27.8312 -68.2254 -17.9509
700 21.9972 13.9529 1.4 28.828 -250 0
701 22.9972 13.9529 1.4 29.8251 -250 0
702 23.9972 13.9529 1.4 30.8223 -250 0
703 24.9972 13.9529 1.4 31.8198 -74.039 85.7841
704 25.9972 13.9529 1.4 32.8173 -86.0356 -73.6412
705 26.9972 13.9529 1.4 33.8151 -250 0
706 27.9972 13.9529 1.4 34.8129 -92.8312 23.0614
707 28.9972 13.9529 1.4 35.8109 -250 0
708 29.9972 13.9529 1.4 36.809 -250 0
709 -28.0028 14.9529 1.4 21.2962 -250 0
710 -27.0028 14.9529 1.4 20.2979 -250 0
711 -26.0028 14.9529 1.4 19.2999 -250 0
712 -25.0028 14.9529 1.4 18.3021 -250 0
713 -24.0028 14.9529 1.4 17.3046 -83.7823 -66.7332
714 -23.0028 14.9529 1.4 16.3073 -70.9494 146.208
715 -22.0028 14.9529 1.4 15.3105 -71.4952 -84.8522
716 -21.0028 14.9529 1.4 14.314 -250 0
717 -20.0028 14.9529 1.4 13.3181 -67.1235 63.4794
718 -19.0028 14.9529 1.4 12.3228 -66.4361 126.932
719 -18.0028 14.9529 1.4 11.3284 -65.7219 -171.593
720 -17.0028 14.9529 1.4 10.3351 -250 0
721 -16.0028 14.9529 1.4 9.34316 -250 0
722 -15.0028 14.9529 1.4 8.35317 -250 0
723 -14.0028 14.9529 1.4 7.36587 -250 0
724 -13.0028 14.9529 1.4 6.38254 -70.736 -78.9413
725 -12.0028 14.9529 1.4 5.40532 -65.3708 -41.7053
726 -11.0028 14.9529 1.4 4.43827 -73.7247 59.2308
727 -10.0028 14.9529 1.4 3.48984 -46.278 122.896
728 -9.00282 14.9529 1.4 2.58063 -43.6287 -86.5553
729 -8.00282 14.9529 1.4 1.77211 -41.1443 -127.524
730 -7.00282 14.9529 1.4 1.27323 -38.1056 -111.756
731 -6.00282 14.9529 1.4 1.44977 -40.4287 33.2766
732 -5.00282 14.9529 1.4 2.14069 -39.82 150.733
733 -4.00282 14.9529 1.4 3.01052 -49.2995 124.845
734 -3.00282 14.9529 1.4 3.94258 -46.1234 -131.983
735 -2.00282 14.9529 1.4 4.9015 -48.9027 -87.3744
736 -1.00282 14.9529 1.4 5.87413 -55.4015 -70.4834
737 -0.00282 14.9529 1.4 6.85464 -55.9596 168.648
738 0.99718 14.9529 1.4 7.84008 -55.1028 170.666
739 1.99718 14.9529 1.4 8.82879 -59.2013 153.477
740 2.99718 14.9529 1.4 9.81979 -61.7745 56.5602
741 3.99718 14.9529 1.4 10.8124 -250 0
742 4.99718 14.9529 1.4 11.8063 -250 0
743 5.99718 14.9529 1.4 12.8012 -250 0
744 6.99718 14.9529 1.4 13.7968 -64.1986 110.626
745 7.99718 14.9529 1.4 14.793 -66.4689 -1.72127
746 8.99718 14.9529 1.4 15.7896 -61.9067 -40.1568
747 9.99718 14.9529 1.4 16.7867 -65.9013 -96.6939
748 10.9972 14.9529 1.4 17.7841 -250 0
749 11.9972 14.9529 1.4 18.7818 -250 0
750 12.9972 14.9529 1.4 19.7797 -250 0
751 13.9972 14.9529 1.4 20.7778 -250 0
752 14.9972 14.9529 1.4 21.7761 -250 0
753 15.9972 14.9529 1.4 22.7745 -250 0
754 16.9972 14.9529 1.4 23.7731 -250 0
755 17.9972 14.9529 1.4 24.7717 -250 0
756 18.9972 14.9529 1.4 25.7705 -250 0
757 19.9972 14.9529 1.4 26.7694 -250 0
758 20.9972 14.9529 1.4 27.7683 -250 0
759 21.9972 14.9529 1.4 28.7674 -250 0
760 22.9972 14.9529 1.4 29.7665 -250 0
761 23.9972 14.9529 1.4 30.7656 -250 0
762 24.9972 14.9529 1.4 31.7648 -250 0
763 25.9972 14.9529 1.4 32.7641 -250 0
764 26.9972 14.9529 1.4 33.7634 -250 0
765 27.9972 14.9529 1.4 34.7627 -250 0
766 28.9972 14.9529 1.4 35.7621 -250 0
767 29.9972 14.9529 1.4 36.7615 -250 0
768 -28.0028 15.9529 1.4 21.2611 -250 0
769 -27.0028 15.9529 1.4 20.2611 -250 0
770 -26.0028 15.9529 1.4 19.2612 -250 0
771 -25.0028 15.9529 1.4 18.2613 -250 0
772 -24.0028 15.9529 1.4 17.2614 -250 0
773 -23.0028 15.9529 1.4 16.2615 -250 0
774 -22.0028 15.9529 1.4 15.2616 -250 0
775 -21.0028 15.9529 1.4 14.2618 -250 0
776 -20.0028 15.9529 1.4 13.2619 -63.9931 -110.727
777 -19.0028 15.9529 1.4 12.2621 -67.7308 -70.2444
778 -18.0028 15.9529 1.4 11.2623 -67.0153 4.59248
779 -17.0028 15.9529 1.4 10.2626 -250 0
780 -16.0028 15.9529 1.4 9.26292 -250 0
781 -15.0028 15.9529 1.4 8.26332 -250 0
782 -14.0028 15.9529 1.4 7.26382 -250 0
783 -13.0028 15.9529 1.4 6.26449 -69.694 -139.091
784 -12.0028 15.9529 1.4 5.26541 -73.7616 -151.763
785 -11.0028 15.9529 1.4 4.26677 -49.8052 52.0374
786 -10.0028 15.9529 1.4 3.26895 -46.675 5.77045
787 -9.00282 15.9529 1.4 2.27304 -44.5827 85.0279
788 -8.00282 15.9529 1.4 1.28353 -39.8639 129.296
789 -7.00282 15.9529 1.4 0.357996 -28.7431 6.25593
790 -6.00282 15.9529 1.4 0.780306 -31.796 -140.875
791 -5.00282 15.9529 1.4 1.75772 -37.6016 -160.605
792 -4.00282 15.9529 1.4 2.75142 -42.1614 146.023
793 -3.00282 15.9529 1.4 3.74847 -47.6415 31.6843
794 -2.00282 15.9529 1.4 4.74676 -45.6386 -55.6525
795 -1.00282 15.9529 1.4 5.74565 -45.8792 -103.655
796 -0.00282 15.9529 1.4 6.74486 -53.3058 134.761
797 0.99718 15.9529 1.4 7.74428 -50.7883 47.234
798 1.99718 15.9529 1.4 8.74383 -52.3174 -1.38128
799 2.99718 15.9529 1.4 9.74348 -55.2046 -127.265
800 3.99718 15.9529 1.4 10.7432 -250 0
801 4.99718 15.9529 1.4 11.7429 -250 0
802 5.99718 15.9529 1.4 12.7427 -250 0
803 6.99718 15.9529 1.4 13.7426 -62.1385 -111.892
804 7.99718 15.9529 1.4 14.7424 -67.8152 142.386
805 8.99718 15.9529 1.4 15.7423 -64.1883 69.2014
806 9.99718 15.9529 1.4 16.7422 -67.3183 27.8157
807 10.9972 15.9529 1.4 17.7421 -250 0
808 11.9972 15.9529 1.4 18.742 -250 0
809 12.9972 15.9529 1.4 19.7419 -250 0
810 13.9972 15.9529 1.4 20.7418 -250 0
811 14.9972 15.9529 1.4 21.7418 -73.6081 151.315
812 15.9972 15.9529 1.4 22.7417 -250 0
813 16.9972 15.9529 1.4 23.7416 -250 0
814 17.9972 15.9529 1.4 24.7416 -250 0
815 18.9972 15.9529 1.4 25.7415 -250 0
816 19.9972 15.9529 1.4 26.7415 -250 0
817 20.9972 15.9529 1.4 27.7415 -250 0
818 21.9972 15.9529 1.4 28.7414 -250 0
819 22.9972 15.9529 1.4 29.7414 -250 0
820 23.9972 15.9529 1.4 30.7413 -250 0
821 24.9972 15.9529 1.4 31.7413 -250 0
822 25.9972 15.9529 1.4 32.7413 -250 0
823 26.9972 15.9529 1.4 33.7413 -250 0
824 27.9972 15.9529 1.4 34.7412 -250 0
825 28.9972 15.9529 1.4 35.7412 -250 0
826 29.9972 15.9529 1.4 36.7412 -250 0
827 -28.0028 16.9529 1.4 21.273 -89.7898 19.8285
828 -27.0028 16.9529 1.4 20.2737 -88.359 125.324
829 -26.0028 16.9529 1.4 19.2744 -76.8838 96.6795
830 -25.0028 16.9529 1.4 18.2752 -81.0199 -69.2342
831 -24.0028 16.9529 1.4 17.2761 -250 0
832 -23.0028 16.9529 1.4 16.2771 -250 0
833 -22.0028 16.9529 1.4 15.2782 -250 0
834 -21.0028 16.9529 1.4 14.2795 -250 0
835 -20.0028 16.9529 1.4 13.281 -67.1472 129.799
836 -19.0028 16.9529 1.4 12.2828 -63.2007 -167.142
837 -18.0028 16.9529 1.4 11.2848 -66.3077 -56.1617
838 -17.0028 16.9529 1.4 10.2873 -250 0
839 -16.0028 16.9529 1.4 9.29025 -250 0
840 -15.0028 16.9529 1.4 8.29394 -250 0
841 -14.0028 16.9529 1.4 7.29864 -250 0
842 -13.0028 16.9529 1.4 6.30483 -73.8204 120.841
843 -12.0028 16.9529 1.4 5.31335 -54.2059 -132.317
844 -11.0028 16.9529 1.4 4.32578 -65.7193 -49.3367
845 -10.0028 16.9529 1.4 3.3456 -50.4368 152.074
846 -9.00282 16.9529 1.4 2.38197 -46.0546 102.998
847 -8.00282 16.9529 1.4 1.46782 -41.088 -14.3306
848 -7.00282 16.9529 1.4 0.797007 -35.821 134.699
849 -6.00282 16.9529 1.4 1.05638 -35.583 134.409
850 -5.00282 16.9529 1.4 1.89648 -43.1389 176.382
851 -4.00282 16.9529 1.4 2.84207 -43.104 -108.937
852 -3.00282 16.9529 1.4 3.81551 -50.1713 -169.168
853 -2.00282 16.9529 1.4 4.79988 -45.0885 -179.607
854 -1.00282 16.9529 1.4 5.7896 -46.2368 153.964
855 -0.00282 16.9529 1.4 6.78235 -52.9911 45.1558
856 0.99718 16.9529 1.4 7.77695 -52.0864 -31.7497
857 1.99718 16.9529 1.4 8.77278 -54.1822 -59.554
858 2.99718 16.9529 1.4 9.76946 -54.6753 -168.786
859 3.99718 16.9529 1.4 10.7668 -250 0
860 4.99718 16.9529 1.4 11.7645 -250 0
861 5.99718 16.9529 1.4 12.7626 -250 0
862 6.99718 16.9529 1.4 13.761 -62.3197 -157.253
863 7.99718 16.9529 1.4 14.7596 -63.6324 110.483
864 8.99718 16.9529 1.4 15.7584 -58.697 56.2372
865 9.99718 16.9529 1.4 16.7573 -65.4276 24.7471
866 10.9972 16.9529 1.4 17.7564 -77.6854 151.858
867 11.9972 16.9529 1.4 18.7555 -250 0
868 12.9972 16.9529 1.4 19.7547 -86.4919 55.2407
869 13.9972 16.9529 1.4 20.754 -92.5769 87.5875
870 14.9972 16.9529 1.4 21.7534 -79.7144 43.4272
871 15.9972 16.9529 1.4 22.7528 -75.514 -30.1436
872 16.9972 16.9529 1.4 23.7523 -91.7256 5.56609
873 17.9972 16.9529 1.4 24.7518 -250 0
874 18.9972 16.9529 1.4 25.7514 -250 0
875 19.9972 16.9529 1.4 26.751 -250 0
876 20.9972 16.9529 1.4 27.7506 -89.6593 -92.375
877 21.9972 16.9529 1.4 28.7502 -250 0
878 22.9972 16.9529 1.4 29.7499 -96.6563 -13.2734
879 23.9972 16.9529 1.4 30.7496 -97.9343 -128.71
880 24.9972 16.9529 1.4 31.7493 -93.2884 -19.7886
881 25.9972 16.9529 1.4 32.749 -250 0
882 26.9972 16.9529 1.4 33.7488 -250 0
883 27.9972 16.9529 1.4 34.7485 -91.5519 54.3042
884 28.9972 16.9529 1.4 35.7483 -250 0
885 29.9972 16.9529 1.4 36.7481 -250 0
886 -28.0028 17.9529 1.4 21.3318 -77.5755 20.627
887 -27.0028 17.9529 1.4 20.3354 -79.0888 -20.7363
888 -26.0028 17.9529 1.4 19.3393 -93.5724 -165.988
889 -25.0028 17.9529 1.4 18.3436 -98.9963 58.3852
890 -24.0028 17.9529 1.4 17.3485 -93.6428 105.771
891 -23.0028 17.9529 1.4 16.3539 -94.014 -126.068
892 -22.0028 17.9529 1.4 15.3601 -80.8051 170.985
893 -21.0028 17.9529 1.4 14.3671 -97.6725 -12.8012
894 -20.0028 17.9529 1.4 13.3751 -61.5997 -47.0234
895 -19.0028 17.9529 1.4 12.3844 -57.6829 -29.4157
896 -18.0028 17.9529 1.4 11.3954 -61.6166 -88.5511
897 -17.0028 17.9529 1.4 10.4084 -250 0
898 -16.0028 17.9529 1.4 9.42422 -250 0
899 -15.0028 17.9529 1.4 8.44373 -250 0
900 -14.0028 17.9529 1.4 7.46842 -250 0
901 -13.0028 17.9529 1.4 6.50061 -49.8993 121.846
902 -12.0028 17.9529 1.4 5.54425 -54.4492 115.924
903 -11.0028 17.9529 1.4 4.60645 -53.7617 -2.62839
904 -10.0028 17.9529 1.4 3.70137 -48.8528 -104.099
905 -9.00282 17.9529 1.4 2.86022 -48.3998 -162.636
906 -8.00282 17.9529 1.4 2.15907 -51.9941 153.357
907 -7.00282 17.9529 1.4 1.77265 -250 0
908 -6.00282 17.9529 1.4 1.90342 -250 0
909 -5.00282 17.9529 1.4 2.47057 -250 0
910 -4.00282 17.9529 1.4 3.25337 -250 0
911 -3.00282 17.9529 1.4 4.131 -49.1457 39.2843
912 -2.00282 17.9529 1.4 5.05429 -55.2638 166.737
913 -1.00282 17.9529 1.4 6.00221 -50.5792 -109.369
914 -0.00282 17.9529 1.4 6.96472 -50.8087 -124.854
915 0.99718 17.9529 1.4 7.9365 -56.0523 -160.427
916 1.99718 17.9529 1.4 8.91452 -62.5553 105.076
917 2.99718 17.9529 1.4 9.89694 -55.2817 127.401
918 3.99718 17.9529 1.4 10.8826 -250 0
919 4.99718 17.9529 1.4 11.8706 -250 0
920 5.99718 17.9529 1.4 12.8605 -250 0
921 6.99718 17.9529 1.4 13.8518 -70.2093 65.6262
922 7.99718 17.9529 1.4 14.8443 -70.722 166.809
923 8.99718 17.9529 1.4 15.8377 -62.2503 -168.553
924 9.99718 17.9529 1.4 16.8319 -69.9969 -178.996
925 10.9972 17.9529 1.4 17.8268 -77.6105 -137.906
926 11.9972 17.9529 1.4 18.8222 -72.4228 -119.977
927 12.9972 17.9529 1.4 19.8181 -88.4105 24.1711
928 13.9972 17.9529 1.4 20.8144 -250 0
929 14.9972 17.9529 1.4 21.811 -250 0
930 15.9972 17.9529 1.4 22.8079 -85.5118 71.8957
931 16.9972 17.9529 1.4 23.805 -80.3133 -116.828
932 17.9972 17.9529 1.4 24.8024 -250 0
933 18.9972 17.9529 1.4 25.8 -250 0
934 19.9972 17.9529 1.4 26.7978 -250 0
935 20.9972 17.9529 1.4 27.7957 -102.029 -119.053
936 21.9972 17.9529 1.4 28.7938 -79.5729 126.885
937 22.9972 17.9529 1.4 29.792 -250 0
938 23.9972 17.9529 1.4 30.7903 -250 0
939 24.9972 17.9529 1.4 31.7888 -250 0
940 25.9972 17.9529 1.4 32.7873 -106.883 -48.1889
941 26.9972 17.9529 1.4 33.7859 -94.2393 137.347
942 27.9972 17.9529 1.4 34.7846 -89.4769 0.0435486
943 28.9972 17.9529 1.4 35.7833 -103.886 46.2943
944 29.9972 17.9529 1.4 36.7822 -104.109 80.7149
945 -28.0028 18.9529 1.4 21.4372 -250 0
946 -27.0028 18.9529 1.4 20.4459 -250 0
947 -26.0028 18.9529 1.4 19.4555 -250 0
948 -25.0028 18.9529 1.4 18.4661 -250 0
949 -24.0028 18.9529 1.4 17.4779 -102.348 -0.961424
950 -23.0028 18.9529 1.4 16.4911 -100.078 -79.9868
951 -22.0028 18.9529 1.4 15.5061 -82.5043 137.351
952 -21.0028 18.9529 1.4 14.5231 -91.5363 176.257
953 -20.0028 18.9529 1.4 13.5425 -74.7537 109.233
954 -19.0028 18.9529 1.4 12.5651 -62.3216 -84.7018
955 -18.0028 18.9529 1.4 11.5914 -78.561 -102.311
956 -17.0028 18.9529 1.4 10.6227 -250 0
957 -16.0028 18.9529 1.4 9.66038 -250 0
958 -15.0028 18.9529 1.4 8.70653 -250 0
959 -14.0028 18.9529 1.4 7.7643 -250 0
960 -13.0028 18.9529 1.4 6.8385 -58.9423 -76.0277
961 -12.0028 18.9529 1.4 5.93681 -52.0364 48.1452
962 -11.0028 18.9529 1.4 5.07213 -52.0575 105.826
963 -10.0028 18.9529 1.4 4.26699 -45.2221 25.5754
964 -9.00282 18.9529 1.4 3.56201 -45.3072 -1.58275
965 -8.00282 18.9529 1.4 3.02797 -56.741 164.381
966 -7.00282 18.9529 1.4 2.76574 -250 0
967 -6.00282 18.9529 1.4 2.85133 -250 0
968 -5.00282 18.9529 1.4 3.25742 -250 0
969 -4.00282 18.9529 1.4 3.88478 -250 0
970 -3.00282 18.9529 1.4 4.64459 -62.4499 -165.361
971 -2.00282 18.9529 1.4 5.48205 -52.256 -31.0749
972 -1.00282 18.9529 1.4 6.3666 -54.722 169.405
973 -0.00282 18.9529 1.4 7.2811 -70.0319 -92.7055
974 0.99718 18.9529 1.4 8.21554 -66.068 136.53
975 1.99718 18.9529 1.4 9.16383 -58.0972 -121.462
976 2.99718 18.9529 1.4 10.1221 -57.7333 -95.681
977 3.99718 18.9529 1.4 11.0877 -250 0
978 4.99718 18.9529 1.4 12.0589 -250 0
979 5.99718 18.9529 1.4 13.0345 -250 0
980 6.99718 18.9529 1.4 14.0135 -250 0
981 7.99718 18.9529 1.4 14.9953 -64.9931 -80.6389
982 8.99718 18.9529 1.4 15.9794 -77.7017 -90.1416
983 9.99718 18.9529 1.4 16.9653 -77.3852 -7.6554
984 10.9972 18.9529 1.4 17.9528 -89.8195 -108.037
985 11.9972 18.9529 1.4 18.9416 -90.5861 -144.848
986 12.9972 18.9529 1.4 19.9315 -79.8414 123.311
987 13.9972 18.9529 1.4 20.9223 -88.5969 -17.1289
988 14.9972 18.9529 1.4 21.914 -82.9814 142.89
989 15.9972 18.9529 1.4 22.9065 -81.2128 8.9853
990 16.9972 18.9529 1.4 23.8995 -250 0
991 17.9972 18.9529 1.4 24.8931 -250 0
992 18.9972 18.9529 1.4 25.8872 -250 0
993 19.9972 18.9529 1.4 26.8818 -250 0
994 20.9972 18.9529 1.4 27.8767 -250 0
995 21.9972 18.9529 1.4 28.872 -102.565 21.0989
996 22.9972 18.9529 1.4 29.8676 -112.328 169.232
997 23.9972 18.9529 1.4 30.8634 -88.1753 -98.7674
998 24.9972 18.9529 1.4 31.8596 -92.7026 -85.8702
999 25.9972 18.9529 1.4 32.8559 -97.3293 52.8825
1000 26.9972 18.9529 1.4 33.8525 -250 0
1001 27.9972 18.9529 1.4 34.8493 -90.6804 159.112
1002 28.9972 18.9529 1.4 35.8463 -97.1231 -24.0759
1003 29.9972 18.9529 1.4 36.8434 -87.8999 1.67243
1004 -28.0028 19.9529 1.4 21.5885 -250 0
1005 -27.0028 19.9529 1.4 20.6044 -250 0
1006 -26.0028 19.9529 1.4 19.622 -250 0
1007 -25.0028 19.9529 1.4 18.6414 -250 0
1008 -24.0028 19.9529 1.4 17.6631 -101.329 -156.799
1009 -23.0028 19.9529 1.4 16.6873 -102.422 81.0939
1010 -22.0028 19.9529 1.4 15.7145 -250 0
1011 -21.0028 19.9529 1.4 14.7454 -87.2245 -103.925
1012 -20.0028 19.9529 1.4 13.7807 -79.4664 6.81243
1013 -19.0028 19.9529 1.4 12.8214 -250 0
1014 -18.0028 19.9529 1.4 11.8688 -250 0
1015 -17.0028 19.9529 1.4 10.9247 -250 0
1016 -16.0028 19.9529 1.4 9.99149 -250 0
1017 -15.0028 19.9529 1.4 9.07252 -250 0
1018 -14.0028 19.9529 1.4 8.1726 -250 0
1019 -13.0028 19.9529 1.4 7.29877 -52.0224 20.9487
1020 -12.0028 19.9529 1.4 6.46164 -51.5646 -0.835344
1021 -11.0028 19.9529 1.4 5.67746 -51.5436 -136.577
1022 -10.0028 19.9529 1.4 4.97134 -55.0801 151.022
1023 -9.00282 19.9529 1.4 4.38121 -59.7128 -153.037
1024 -8.00282 19.9529 1.4 3.95925 -54.0709 -58.1236
1025 -7.00282 19.9529 1.4 3.7625 -250 0
1026 -6.00282 19.9529 1.4 3.82585 -250 0
1027 -5.00282 19.9529 1.4 4.13737 -250 0
1028 -4.00282 19.9529 1.4 4.64742 -250 0
1029 -3.00282 19.9529 1.4 5.29899 -68.5549 -17.803
1030 -2.00282 19.9529 1.4 6.04649 -75.8177 -75.9031
1031 -1.00282 19.9529 1.4 6.85862 -54.6936 -108.519
1032 -0.00282 19.9529 1.4 7.71501 -70.9918 -72.4104
1033 0.99718 19.9529 1.4 8.60245 -250 0
1034 1.99718 19.9529 1.4 9.51225 -250 0
1035 2.99718 19.9529 1.4 10.4386 -250 0
1036 3.99718 19.9529 1.4 11.3774 -250 0
1037 4.99718 19.9529 1.4 12.3258 -250 0
1038 5.99718 19.9529 1.4 13.2818 -250 0
1039 6.99718 19.9529 1.4 14.2438 -250 0
1040 7.99718 19.9529 1.4 15.2108 -250 0
1041 8.99718 19.9529 1.4 16.1817 -65.4553 72.2848
1042 9.99718 19.9529 1.4 17.156 -83.555 -139.831
1043 10.9972 19.9529 1.4 18.1331 -87.084 103.036
1044 11.9972 19.9529 1.4 19.1126 -250 0
1045 12.9972 19.9529 1.4 20.094 -250 0
1046 13.9972 19.9529 1.4 21.0773 -250 0
1047 14.9972 19.9529 1.4 22.062 -90.9397 4.61375
1048 15.9972 19.9529 1.4 23.0481 -250 0
1049 16.9972 19.9529 1.4 24.0353 -250 0
1050 17.9972 19.9529 1.4 25.0235 -250 0
1051 18.9972 19.9529 1.4 26.0126 -250 0
1052 19.9972 19.9529 1.4 27.0025 -250 0
1053 20.9972 19.9529 1.4 27.9932 -250 0
1054 21.9972 19.9529 1.4 28.9844 -250 0
1055 22.9972 19.9529 1.4 29.9763 -103.064 161.345
1056 23.9972 19.9529 1.4 30.9687 -86.2378 15.4255
1057 24.9972 19.9529 1.4 31.9615 -102.05 124.363
1058 25.9972 19.9529 1.4 32.9548 -250 0
1059 26.9972 19.9529 1.4 33.9485 -250 0
1060 27.9972 19.9529 1.4 34.9425 -250 0
1061 28.9972 19.9529 1.4 35.9369 -250 0
1062 29.9972 19.9529 1.4 36.9316 -89.7063 37.235
