#Rx
# X(m), Y(m), Z(m), Distance(m), Power (dBm) Phase (deg)
1 -28.0028 2.95289 1.4 51.4926 -250 0
2 -27.0028 2.95289 1.4 50.5529 -250 0
3 -26.0028 2.95289 1.4 49.6155 -250 0
4 -25.0028 2.95289 1.4 48.6806 -250 0
5 -24.0028 2.95289 1.4 47.7484 -250 0
6 -23.0028 2.95289 1.4 46.8189 -250 0
7 -22.0028 2.95289 1.4 45.8925 -250 0
8 -21.0028 2.95289 1.4 44.9691 -250 0
9 -20.0028 2.95289 1.4 44.0492 -195.269 -71.0316
10 -19.0028 2.95289 1.4 43.1327 -195.176 -75.2861
11 -18.0028 2.95289 1.4 42.2201 -113.893 142.489
12 -17.0028 2.95289 1.4 41.3115 -250 0
13 -16.0028 2.95289 1.4 40.4073 -250 0
14 -15.0028 2.95289 1.4 39.5076 -250 0
15 -14.0028 2.95289 1.4 38.6129 -250 0
16 -13.0028 2.95289 1.4 37.7235 -90.1728 43.6399
17 -12.0028 2.95289 1.4 36.8397 -117.081 -42.1014
18 -11.0028 2.95289 1.4 35.9621 -250 0
19 -10.0028 2.95289 1.4 35.091 -250 0
20 -9.00282 2.95289 1.4 34.2269 -118.629 -132.194
21 -8.00282 2.95289 1.4 33.3704 -91.7468 63.9942
22 -7.00282 2.95289 1.4 32.5221 -117.033 -132.501
23 -6.00282 2.95289 1.4 31.6827 -250 0
24 -5.00282 2.95289 1.4 30.8529 -250 0
25 -4.00282 2.95289 1.4 30.0334 -250 0
26 -3.00282 2.95289 1.4 29.2251 -93.0702 55.1745
27 -2.00282 2.95289 1.4 28.4291 -96.5037 -3.59936
28 -1.00282 2.95289 1.4 27.6463 -115.335 -26.5171
29 -0.00282 2.95289 1.4 26.8779 -110.307 60.9058
30 0.99718 2.95289 1.4 26.1252 -101.381 88.5064
31 1.99718 2.95289 1.4 25.3896 -83.9599 -9.70013
32 2.99718 2.95289 1.4 24.6726 -98.8577 -0.360937
33 3.99718 2.95289 1.4 23.9759 -83.9257 -101.546
34 4.99718 2.95289 1.4 23.3012 -86.0702 -67.8715
35 5.99718 2.95289 1.4 22.6507 -73.4897 -50.6926
36 6.99718 2.95289 1.4 22.0263 -73.5201 31.5727
37 7.99718 2.95289 1.4 21.4304 -73.0734 -98.1187
38 8.99718 2.95289 1.4 20.8654 -250 0
39 9.99718 2.95289 1.4 20.334 -250 0
40 10.9972 2.95289 1.4 19.8387 -89.1861 -64.0769
41 11.9972 2.95289 1.4 19.3825 -63.3825 -8.36992
42 12.9972 2.95289 1.4 18.968 -68.7636 39.8769
43 13.9972 2.95289 1.4 18.5981 -110.611 -142.146
44 14.9972 2.95289 1.4 18.2755 -107.022 29.9934
45 15.9972 2.95289 1.4 18.0028 -87.4258 142.656
46 16.9972 2.95289 1.4 17.7821 -78.6507 -26.7174
47 17.9972 2.95289 1.4 17.6156 -91.9614 -58.4668
48 18.9972 2.95289 1.4 17.5047 -79.9241 -48.4088
49 19.9972 2.95289 1.4 17.4505 -70.2611 -5.76482
50 20.9972 2.95289 1.4 17.4535 -71.6304 157.387
51 21.9972 2.95289 1.4 17.5137 -59.5567 -177.721
52 22.9972 2.95289 1.4 17.6305 -72.3798 -129.083
53 23.9972 2.95289 1.4 17.8028 -64.6499 121.267
54 24.9972 2.95289 1.4 18.0289 -86.1444 -177.175
55 25.9972 2.95289 1.4 18.307 -81.4443 146.363
56 26.9972 2.95289 1.4 18.6347 -70.108 174.976
57 27.9972 2.95289 1.4 19.0094 -250 0
58 28.9972 2.95289 1.4 19.4284 -250 0
59 29.9972 2.95289 1.4 19.8889 -250 0
60 -28.0028 3.95289 1.4 51.1625 -250 0
61 -27.0028 3.95289 1.4 50.2166 -250 0
62 -26.0028 3.95289 1.4 49.2728 -250 0
63 -25.0028 3.95289 1.4 48.3313 -250 0
64 -24.0028 3.95289 1.4 47.3922 -250 0
65 -23.0028 3.95289 1.4 46.4556 -250 0
66 -22.0028 3.95289 1.4 45.5217 -250 0
67 -21.0028 3.95289 1.4 44.5907 -250 0
68 -20.0028 3.95289 1.4 43.6628 -250 0
69 -19.0028 3.95289 1.4 42.7381 -250 0
70 -18.0028 3.95289 1.4 41.8168 -250 0
71 -17.0028 3.95289 1.4 40.8993 -250 0
72 -16.0028 3.95289 1.4 39.9857 -250 0
73 -15.0028 3.95289 1.4 39.0764 -250 0
74 -14.0028 3.95289 1.4 38.1715 -250 0
75 -13.0028 3.95289 1.4 37.2716 -98.634 -106.726
76 -12.0028 3.95289 1.4 36.3769 -93.201 -108.293
77 -11.0028 3.95289 1.4 35.4878 -109.327 100.863
78 -10.0028 3.95289 1.4 34.6047 -102.855 136.943
79 -9.00282 3.95289 1.4 33.7282 -95.8089 -176.567
80 -8.00282 3.95289 1.4 32.8587 -250 0
81 -7.00282 3.95289 1.4 31.9969 -104.543 -84.0897
82 -6.00282 3.95289 1.4 31.1433 -117.892 156.811
83 -5.00282 3.95289 1.4 30.2987 -250 0
84 -4.00282 3.95289 1.4 29.4638 -250 0
85 -3.00282 3.95289 1.4 28.6395 -106.226 -156.494
86 -2.00282 3.95289 1.4 27.8267 -108.457 119.559
87 -1.00282 3.95289 1.4 27.0265 -108.112 34.1906
88 -0.00282 3.95289 1.4 26.2399 -110.038 169.643
89 0.99718 3.95289 1.4 25.4684 -90.3405 -160.602
90 1.99718 3.95289 1.4 24.7132 -105.881 50.7837
91 2.99718 3.95289 1.4 23.976 -94.5716 65.2588
92 3.99718 3.95289 1.4 23.2584 -67.9362 -67.0595
93 4.99718 3.95289 1.4 22.5623 -80.5899 3.65624
94 5.99718 3.95289 1.4 21.8898 -79.0472 -73.7827
95 6.99718 3.95289 1.4 21.2431 -71.2024 162.313
96 7.99718 3.95289 1.4 20.6246 -69.7171 -176.366
97 8.99718 3.95289 1.4 20.0369 -98.001 -124.925
98 9.99718 3.95289 1.4 19.4829 -250 0
99 10.9972 3.95289 1.4 18.9654 -76.0223 -64.1544
100 11.9972 3.95289 1.4 18.4876 -69.067 -144.365
101 12.9972 3.95289 1.4 18.0526 -71.4592 -155.515
102 13.9972 3.95289 1.4 17.6635 -115.041 102.988
103 14.9972 3.95289 1.4 17.3236 -92.4622 -105.889
104 15.9972 3.95289 1.4 17.0356 -86.7483 178.314
105 16.9972 3.95289 1.4 16.8022 -82.2461 25.5099
106 17.9972 3.95289 1.4 16.6259 -79.2351 126.354
107 18.9972 3.95289 1.4 16.5083 -77.1509 -25.0262
108 19.9972 3.95289 1.4 16.4508 -71.2857 76.853
109 20.9972 3.95289 1.4 16.454 -65.4351 25.3009
110 21.9972 3.95289 1.4 16.5178 -71.6117 -38.8356
111 22.9972 3.95289 1.4 16.6416 -65.4753 133.183
112 23.9972 3.95289 1.4 16.824 -61.3643 156.754
113 24.9972 3.95289 1.4 17.0632 -87.5078 118.754
114 25.9972 3.95289 1.4 17.3568 -81.1675 -107.603
115 26.9972 3.95289 1.4 17.7021 -87.4335 44.0928
116 27.9972 3.95289 1.4 18.0961 -250 0
117 28.9972 3.95289 1.4 18.5357 -250 0
118 29.9972 3.95289 1.4 19.0178 -250 0
119 -28.0028 4.95289 1.4 50.8499 -250 0
120 -27.0028 4.95289 1.4 49.8981 -250 0
121 -26.0028 4.95289 1.4 48.9481 -250 0
122 -25.0028 4.95289 1.4 48.0003 -250 0
123 -24.0028 4.95289 1.4 47.0545 -250 0
124 -23.0028 4.95289 1.4 46.1111 -250 0
125 -22.0028 4.95289 1.4 45.1701 -250 0
126 -21.0028 4.95289 1.4 44.2317 -250 0
127 -20.0028 4.95289 1.4 43.2961 -250 0
128 -19.0028 4.95289 1.4 42.3634 -250 0
129 -18.0028 4.95289 1.4 41.4338 -250 0
130 -17.0028 4.95289 1.4 40.5076 -250 0
131 -16.0028 4.95289 1.4 39.5849 -250 0
132 -15.0028 4.95289 1.4 38.6662 -250 0
133 -14.0028 4.95289 1.4 37.7515 -250 0
134 -13.0028 4.95289 1.4 36.8413 -100.864 115
135 -12.0028 4.95289 1.4 35.9359 -101.438 -115.787
136 -11.0028 4.95289 1.4 35.0356 -109.027 37.788
137 -10.0028 4.95289 1.4 34.1408 -105.443 -121.203
138 -9.00282 4.95289 1.4 33.2521 -250 0
139 -8.00282 4.95289 1.4 32.3698 -250 0
140 -7.00282 4.95289 1.4 31.4946 -250 0
141 -6.00282 4.95289 1.4 30.627 -108.91 87.5707
142 -5.00282 4.95289 1.4 29.7678 -109.286 -170.856
143 -4.00282 4.95289 1.4 28.9176 -250 0
144 -3.00282 4.95289 1.4 28.0772 -250 0
145 -2.00282 4.95289 1.4 27.2477 -107.001 23.338
146 -1.00282 4.95289 1.4 26.4299 -106.384 -32.2801
147 -0.00282 4.95289 1.4 25.6251 -95.9967 -76.2097
148 0.99718 4.95289 1.4 24.8344 -106.786 155.705
149 1.99718 4.95289 1.4 24.0594 -103.339 -123.22
150 2.99718 4.95289 1.4 23.3015 -103.106 -133.092
151 3.99718 4.95289 1.4 22.5624 -65.7146 -167.357
152 4.99718 4.95289 1.4 21.8442 -66.1289 163.239
153 5.99718 4.95289 1.4 21.1488 -87.6415 24.4347
154 6.99718 4.95289 1.4 20.4787 -87.9889 -98.1675
155 7.99718 4.95289 1.4 19.8364 -69.1783 2.53564
156 8.99718 4.95289 1.4 19.2247 -69.2111 -58.9718
157 9.99718 4.95289 1.4 18.6465 -250 0
158 10.9972 4.95289 1.4 18.1052 -69.9469 18.9826
159 11.9972 4.95289 1.4 17.604 -250 0
160 12.9972 4.95289 1.4 17.1466 -89.4491 81.065
161 13.9972 4.95289 1.4 16.7365 -92.066 -10.0336
162 14.9972 4.95289 1.4 16.3773 -96.8607 112.132
163 15.9972 4.95289 1.4 16.0724 -90.6299 -110.38
164 16.9972 4.95289 1.4 15.8248 -102.818 71.137
165 17.9972 4.95289 1.4 15.6375 -81.114 2.30506
166 18.9972 4.95289 1.4 15.5124 -70.2418 17.2202
167 19.9972 4.95289 1.4 15.4512 -67.1897 -108.444
168 20.9972 4.95289 1.4 15.4546 -75.7815 19.9861
169 21.9972 4.95289 1.4 15.5226 -67.3619 -56.7319
170 22.9972 4.95289 1.4 15.6542 -64.7722 -105.445
171 23.9972 4.95289 1.4 15.848 -53.8592 -177.662
172 24.9972 4.95289 1.4 16.1017 -113.219 124.319
173 25.9972 4.95289 1.4 16.4125 -121.99 27.543
174 26.9972 4.95289 1.4 16.7772 -125.173 -52.3257
175 27.9972 4.95289 1.4 17.1924 -250 0
176 28.9972 4.95289 1.4 17.6545 -250 0
177 29.9972 4.95289 1.4 18.1601 -250 0
178 -28.0028 5.95289 1.4 50.5551 -250 0
179 -27.0028 5.95289 1.4 49.5976 -250 0
180 -26.0028 5.95289 1.4 48.6419 -250 0
181 -25.0028 5.95289 1.4 47.6879 -250 0
182 -24.0028 5.95289 1.4 46.7359 -250 0
183 -23.0028 5.95289 1.4 45.7859 -250 0
184 -22.0028 5.95289 1.4 44.838 -250 0
185 -21.0028 5.95289 1.4 43.8925 -250 0
186 -20.0028 5.95289 1.4 42.9495 -250 0
187 -19.0028 5.95289 1.4 42.0091 -250 0
188 -18.0028 5.95289 1.4 41.0715 -250 0
189 -17.0028 5.95289 1.4 40.1369 -250 0
190 -16.0028 5.95289 1.4 39.2056 -250 0
191 -15.0028 5.95289 1.4 38.2777 -250 0
192 -14.0028 5.95289 1.4 37.3536 -250 0
193 -13.0028 5.95289 1.4 36.4334 -99.0474 -2.33958
194 -12.0028 5.95289 1.4 35.5176 -101.906 -141.264
195 -11.0028 5.95289 1.4 34.6064 -102.2 21.1781
196 -10.0028 5.95289 1.4 33.7003 -100.868 -1.41557
197 -9.00282 5.95289 1.4 32.7996 -250 0
198 -8.00282 5.95289 1.4 31.9048 -250 0
199 -7.00282 5.95289 1.4 31.0165 -250 0
200 -6.00282 5.95289 1.4 30.1351 -250 0
201 -5.00282 5.95289 1.4 29.2614 -120.654 -101.644
202 -4.00282 5.95289 1.4 28.3961 -250 0
203 -3.00282 5.95289 1.4 27.5398 -250 0
204 -2.00282 5.95289 1.4 26.6935 -114.931 -134.007
205 -1.00282 5.95289 1.4 25.8583 -93.7479 145.032
206 -0.00282 5.95289 1.4 25.0351 -101.548 -44.4198
207 0.99718 5.95289 1.4 24.2252 -93.9362 -166.31
208 1.99718 5.95289 1.4 23.43 -250 0
209 2.99718 5.95289 1.4 22.651 -101.12 24.1037
210 3.99718 5.95289 1.4 21.89 -101.476 -134.738
211 4.99718 5.95289 1.4 21.149 -66.8849 34.0734
212 5.99718 5.95289 1.4 20.43 -64.0357 14.9924
213 6.99718 5.95289 1.4 19.7355 -250 0
214 7.99718 5.95289 1.4 19.0681 -250 0
215 8.99718 5.95289 1.4 18.4309 -71.0642 -179.127
216 9.99718 5.95289 1.4 17.827 -69.432 115.852
217 10.9972 5.95289 1.4 17.26 -64.6825 -79.0823
218 11.9972 5.95289 1.4 16.7336 -250 0
219 12.9972 5.95289 1.4 16.2517 -88.28 113.355
220 13.9972 5.95289 1.4 15.8184 -250 0
221 14.9972 5.95289 1.4 15.4378 -250 0
222 15.9972 5.95289 1.4 15.1139 -250 0
223 16.9972 5.95289 1.4 14.8505 -99.5779 -70.2617
224 17.9972 5.95289 1.4 14.6506 -77.42 -108.976
225 18.9972 5.95289 1.4 14.5171 -68.0631 28.2586
226 19.9972 5.95289 1.4 14.4517 -74.7777 155.734
227 20.9972 5.95289 1.4 14.4553 -73.4333 92.1207
228 21.9972 5.95289 1.4 14.5279 -65.6963 -107.054
229 22.9972 5.95289 1.4 14.6685 -58.8818 -81.0517
230 23.9972 5.95289 1.4 14.8751 -59.0517 117.647
231 24.9972 5.95289 1.4 15.1451 -129.688 -102.33
232 25.9972 5.95289 1.4 15.4751 -104.174 71.1617
233 26.9972 5.95289 1.4 15.8614 -109.246 -129.09
234 27.9972 5.95289 1.4 16.3 -250 0
235 28.9972 5.95289 1.4 16.7867 -250 0
236 29.9972 5.95289 1.4 17.3176 -250 0
237 -28.0028 6.95289 1.4 50.2785 -250 0
238 -27.0028 6.95289 1.4 49.3157 -250 0
239 -26.0028 6.95289 1.4 48.3543 -250 0
240 -25.0028 6.95289 1.4 47.3946 -250 0
241 -24.0028 6.95289 1.4 46.4365 -250 0
242 -23.0028 6.95289 1.4 45.4803 -250 0
243 -22.0028 6.95289 1.4 44.526 -250 0
244 -21.0028 6.95289 1.4 43.5737 -250 0
245 -20.0028 6.95289 1.4 42.6236 -250 0
246 -19.0028 6.95289 1.4 41.6758 -250 0
247 -18.0028 6.95289 1.4 40.7306 -250 0
248 -17.0028 6.95289 1.4 39.788 -250 0
249 -16.0028 6.95289 1.4 38.8483 -250 0
250 -15.0028 6.95289 1.4 37.9117 -250 0
251 -14.0028 6.95289 1.4 36.9784 -250 0
252 -13.0028 6.95289 1.4 36.0486 -250 0
253 -12.0028 6.95289 1.4 35.1228 -250 0
254 -11.0028 6.95289 1.4 34.2011 -250 0
255 -10.0028 6.95289 1.4 33.2839 -99.8381 -40.2285
256 -9.00282 6.95289 1.4 32.3716 -101.531 -90.9251
257 -8.00282 6.95289 1.4 31.4647 -250 0
258 -7.00282 6.95289 1.4 30.5636 -250 0
259 -6.00282 6.95289 1.4 29.6688 -250 0
260 -5.00282 6.95289 1.4 28.7809 -250 0
261 -4.00282 6.95289 1.4 27.9007 -250 0
262 -3.00282 6.95289 1.4 27.0287 -250 0
263 -2.00282 6.95289 1.4 26.1659 -87.8454 -17.253
264 -1.00282 6.95289 1.4 25.3133 -99.6069 163.169
265 -0.00282 6.95289 1.4 24.4717 -107.501 105.153
266 0.99718 6.95289 1.4 23.6426 -76.2666 48.4409
267 1.99718 6.95289 1.4 22.8271 -110.83 177.354
268 2.99718 6.95289 1.4 22.0268 -95.5631 0.364719
269 3.99718 6.95289 1.4 21.2435 -78.706 77.6701
270 4.99718 6.95289 1.4 20.479 -94.9755 85.5823
271 5.99718 6.95289 1.4 19.7356 -63.5029 -110.848
272 6.99718 6.95289 1.4 19.0158 -62.6255 -145.673
273 7.99718 6.95289 1.4 18.3222 -250 0
274 8.99718 6.95289 1.4 17.6581 -88.4791 -160.814
275 9.99718 6.95289 1.4 17.0268 -66.4856 -18.4749
276 10.9972 6.95289 1.4 16.4322 -74.11 -65.2513
277 11.9972 6.95289 1.4 15.8784 -76.9056 50.0437
278 12.9972 6.95289 1.4 15.3697 -68.5087 -35.9983
279 13.9972 6.95289 1.4 14.9108 -250 0
280 14.9972 6.95289 1.4 14.5065 -250 0
281 15.9972 6.95289 1.4 14.1613 -250 0
282 16.9972 6.95289 1.4 13.8797 -91.6934 125.021
283 17.9972 6.95289 1.4 13.6657 -81.3409 -153.199
284 18.9972 6.95289 1.4 13.5224 -69.7653 56.0677
285 19.9972 6.95289 1.4 13.4522 -78.1479 166.702
286 20.9972 6.95289 1.4 13.4561 -65.761 82.8954
287 21.9972 6.95289 1.4 13.5341 -61.6481 24.1809
288 22.9972 6.95289 1.4 13.6849 -56.1813 -95.4607
289 23.9972 6.95289 1.4 13.9061 -66.8996 -153.791
290 24.9972 6.95289 1.4 14.1945 -114.412 64.0593
291 25.9972 6.95289 1.4 14.5461 -104.4 65.8122
292 26.9972 6.95289 1.4 14.9564 -103.767 -76.2402
293 27.9972 6.95289 1.4 15.4207 -250 0
294 28.9972 6.95289 1.4 15.9344 -250 0
295 29.9972 6.95289 1.4 16.4927 -250 0
296 -28.0028 7.95289 1.4 50.0204 -250 0
297 -27.0028 7.95289 1.4 49.0525 -250 0
298 -26.0028 7.95289 1.4 48.0859 -250 0
299 -25.0028 7.95289 1.4 47.1207 -250 0
300 -24.0028 7.95289 1.4 46.1569 -250 0
301 -23.0028 7.95289 1.4 45.1948 -250 0
302 -22.0028 7.95289 1.4 44.2343 -250 0
303 -21.0028 7.95289 1.4 43.2756 -250 0
304 -20.0028 7.95289 1.4 42.3188 -250 0
305 -19.0028 7.95289 1.4 41.3641 -250 0
306 -18.0028 7.95289 1.4 40.4115 -149.457 -155.378
307 -17.0028 7.95289 1.4 39.4613 -250 0
308 -16.0028 7.95289 1.4 38.5136 -250 0
309 -15.0028 7.95289 1.4 37.5687 -250 0
310 -14.0028 7.95289 1.4 36.6266 -250 0
311 -13.0028 7.95289 1.4 35.6877 -92.1151 -32.2077
312 -12.0028 7.95289 1.4 34.7522 -250 0
313 -11.0028 7.95289 1.4 33.8205 -250 0
314 -10.0028 7.95289 1.4 32.8927 -250 0
315 -9.00282 7.95289 1.4 31.9693 -250 0
316 -8.00282 7.95289 1.4 31.0506 -84.7676 59.436
317 -7.00282 7.95289 1.4 30.1371 -250 0
318 -6.00282 7.95289 1.4 29.2292 -250 0
319 -5.00282 7.95289 1.4 28.3276 -250 0
320 -4.00282 7.95289 1.4 27.4328 -250 0
321 -3.00282 7.95289 1.4 26.5455 -88.5464 -172.065
322 -2.00282 7.95289 1.4 25.6664 -250 0
323 -1.00282 7.95289 1.4 24.7966 -250 0
324 -0.00282 7.95289 1.4 23.9369 -250 0
325 0.99718 7.95289 1.4 23.0885 -250 0
326 1.99718 7.95289 1.4 22.2528 -78.9683 -83.1879
327 2.99718 7.95289 1.4 21.4311 -104.38 98.5934
328 3.99718 7.95289 1.4 20.6251 -116.498 169.113
329 4.99718 7.95289 1.4 19.8368 -250 0
330 5.99718 7.95289 1.4 19.0684 -250 0
331 6.99718 7.95289 1.4 18.3224 -64.2848 96.0918
332 7.99718 7.95289 1.4 17.6015 -64.7005 72.4982
333 8.99718 7.95289 1.4 16.9091 -250 0
334 9.99718 7.95289 1.4 16.2488 -250 0
335 10.9972 7.95289 1.4 15.6246 -250 0
336 11.9972 7.95289 1.4 15.0411 -64.5169 66.9546
337 12.9972 7.95289 1.4 14.503 -74.1805 -159.265
338 13.9972 7.95289 1.4 14.0158 -250 0
339 14.9972 7.95289 1.4 13.5848 -250 0
340 15.9972 7.95289 1.4 13.2156 -250 0
341 16.9972 7.95289 1.4 12.9135 -78.544 157.293
342 17.9972 7.95289 1.4 12.6831 -70.5383 -141.082
343 18.9972 7.95289 1.4 12.5286 -70.461 -111.682
344 19.9972 7.95289 1.4 12.4528 -73.694 61.5713
345 20.9972 7.95289 1.4 12.457 -62.8538 42.5907
346 21.9972 7.95289 1.4 12.5412 -54.6138 31.5114
347 22.9972 7.95289 1.4 12.7038 -63.3794 -131.092
348 23.9972 7.95289 1.4 12.9418 -66.4547 33.5763
349 24.9972 7.95289 1.4 13.2512 -105.95 -3.69608
350 25.9972 7.95289 1.4 13.6272 -81.3196 -173.097
351 26.9972 7.95289 1.4 14.0643 -68.801 123.181
352 27.9972 7.95289 1.4 14.5571 -250 0
353 28.9972 7.95289 1.4 15.1002 -250 0
354 29.9972 7.95289 1.4 15.6882 -250 0
355 -28.0028 8.95289 1.4 49.7811 -250 0
356 -27.0028 8.95289 1.4 48.8084 -250 0
357 -26.0028 8.95289 1.4 47.8368 -250 0
358 -25.0028 8.95289 1.4 46.8665 -250 0
359 -24.0028 8.95289 1.4 45.8974 -250 0
360 -23.0028 8.95289 1.4 44.9297 -250 0
361 -22.0028 8.95289 1.4 43.9634 -250 0
362 -21.0028 8.95289 1.4 42.9987 -250 0
363 -20.0028 8.95289 1.4 42.0356 -250 0
364 -19.0028 8.95289 1.4 41.0743 -250 0
365 -18.0028 8.95289 1.4 40.1148 -250 0
366 -17.0028 8.95289 1.4 39.1574 -250 0
367 -16.0028 8.95289 1.4 38.2022 -250 0
368 -15.0028 8.95289 1.4 37.2494 -250 0
369 -14.0028 8.95289 1.4 36.299 -250 0
370 -13.0028 8.95289 1.4 35.3514 -250 0
371 -12.0028 8.95289 1.4 34.4068 -250 0
372 -11.0028 8.95289 1.4 33.4654 -98.6595 67.9703
373 -10.0028 8.95289 1.4 32.5275 -117.625 173.608
374 -9.00282 8.95289 1.4 31.5934 -111.339 -67.5856
375 -8.00282 8.95289 1.4 30.6635 -250 0
376 -7.00282 8.95289 1.4 29.7381 -86.7413 -79.147
377 -6.00282 8.95289 1.4 28.8177 -98.7335 -93.793
378 -5.00282 8.95289 1.4 27.9027 -250 0
379 -4.00282 8.95289 1.4 26.9938 -250 0
380 -3.00282 8.95289 1.4 26.0916 -250 0
381 -2.00282 8.95289 1.4 25.1968 -100.323 126.337
382 -1.00282 8.95289 1.4 24.3101 -108.008 -168.884
383 -0.00282 8.95289 1.4 23.4326 -250 0
384 0.99718 8.95289 1.4 22.5653 -94.7441 -28.4951
385 1.99718 8.95289 1.4 21.7094 -104.382 139.509
386 2.99718 8.95289 1.4 20.8663 -76.2208 121.896
387 3.99718 8.95289 1.4 20.0376 -115.316 -127.702
388 4.99718 8.95289 1.4 19.2253 -250 0
389 5.99718 8.95289 1.4 18.4314 -250 0
390 6.99718 8.95289 1.4 17.6584 -250 0
391 7.99718 8.95289 1.4 16.9093 -63.4924 -36.5111
392 8.99718 8.95289 1.4 16.1873 -63.5184 -58.2536
393 9.99718 8.95289 1.4 15.4963 -250 0
394 10.9972 8.95289 1.4 14.8405 -71.3094 46.8959
395 11.9972 8.95289 1.4 14.2248 -74.3573 90.7485
396 12.9972 8.95289 1.4 13.6546 -71.2385 121.99
397 13.9972 8.95289 1.4 13.136 -250 0
398 14.9972 8.95289 1.4 12.6751 -250 0
399 15.9972 8.95289 1.4 12.2786 -250 0
400 16.9972 8.95289 1.4 11.9527 -250 0
401 17.9972 8.95289 1.4 11.7035 -66.8798 -69.8823
402 18.9972 8.95289 1.4 11.5359 -68.5043 -65.6733
403 19.9972 8.95289 1.4 11.4535 -78.822 -104.414
404 20.9972 8.95289 1.4 11.4581 -58.712 127.927
405 21.9972 8.95289 1.4 11.5495 -57.8568 -10.5843
406 22.9972 8.95289 1.4 11.7259 -66.4145 -126.935
407 23.9972 8.95289 1.4 11.9834 -250 0
408 24.9972 8.95289 1.4 12.3169 -79.5514 -103.261
409 25.9972 8.95289 1.4 12.7205 -70.8939 -155.224
410 26.9972 8.95289 1.4 13.1877 -73.7491 -25.7491
411 27.9972 8.95289 1.4 13.7121 -250 0
412 28.9972 8.95289 1.4 14.2872 -250 0
413 29.9972 8.95289 1.4 14.9074 -250 0
414 -28.0028 9.95289 1.4 49.5607 -250 0
415 -27.0028 9.95289 1.4 48.5836 -250 0
416 -26.0028 9.95289 1.4 47.6075 -250 0
417 -25.0028 9.95289 1.4 46.6324 -250 0
418 -24.0028 9.95289 1.4 45.6583 -250 0
419 -23.0028 9.95289 1.4 44.6854 -250 0
420 -22.0028 9.95289 1.4 43.7138 -250 0
421 -21.0028 9.95289 1.4 42.7434 -250 0
422 -20.0028 9.95289 1.4 41.7744 -250 0
423 -19.0028 9.95289 1.4 40.8069 -250 0
424 -18.0028 9.95289 1.4 39.8411 -250 0
425 -17.0028 9.95289 1.4 38.8769 -250 0
426 -16.0028 9.95289 1.4 37.9147 -250 0
427 -15.0028 9.95289 1.4 36.9544 -250 0
428 -14.0028 9.95289 1.4 35.9963 -250 0
429 -13.0028 9.95289 1.4 35.0405 -250 0
430 -12.0028 9.95289 1.4 34.0872 -250 0
431 -11.0028 9.95289 1.4 33.1368 -111.269 -158.097
432 -10.0028 9.95289 1.4 32.1893 -250 0
433 -9.00282 9.95289 1.4 31.2451 -106.451 175.761
434 -8.00282 9.95289 1.4 30.3044 -250 0
435 -7.00282 9.95289 1.4 29.3677 -250 0
436 -6.00282 9.95289 1.4 28.4353 -86.4938 130.434
437 -5.00282 9.95289 1.4 27.5077 -250 0
438 -4.00282 9.95289 1.4 26.5853 -98.3621 31.6589
439 -3.00282 9.95289 1.4 25.6687 -250 0
440 -2.00282 9.95289 1.4 24.7586 -250 0
441 -1.00282 9.95289 1.4 23.8557 -112.243 -30.66
442 -0.00282 9.95289 1.4 22.9608 -99.7986 38.0421
443 0.99718 9.95289 1.4 22.0749 -250 0
444 1.99718 9.95289 1.4 21.1992 -250 0
445 2.99718 9.95289 1.4 20.335 -107.487 6.5802
446 3.99718 9.95289 1.4 19.4837 -86.5768 151.13
447 4.99718 9.95289 1.4 18.6473 -250 0
448 5.99718 9.95289 1.4 17.8277 -250 0
449 6.99718 9.95289 1.4 17.0274 -250 0
450 7.99718 9.95289 1.4 16.2492 -86.7059 32.1155
451 8.99718 9.95289 1.4 15.4965 -64.7212 178.224
452 9.99718 9.95289 1.4 14.7731 -63.1421 157.549
453 10.9972 9.95289 1.4 14.0837 -75.3137 -71.2065
454 11.9972 9.95289 1.4 13.4333 -250 0
455 12.9972 9.95289 1.4 12.8281 -67.0076 157.545
456 13.9972 9.95289 1.4 12.2745 -250 0
457 14.9972 9.95289 1.4 11.78 -250 0
458 15.9972 9.95289 1.4 11.3523 -250 0
459 16.9972 9.95289 1.4 10.999 -250 0
460 17.9972 9.95289 1.4 10.7277 -66.0235 22.2546
461 18.9972 9.95289 1.4 10.5446 -79.785 77.0723
462 19.9972 9.95289 1.4 10.4543 -56.898 155.322
463 20.9972 9.95289 1.4 10.4593 -52.8133 126.699
464 21.9972 9.95289 1.4 10.5595 -63.2603 121.189
465 22.9972 9.95289 1.4 10.7521 -76.1565 -103.723
466 23.9972 9.95289 1.4 11.0323 -62.5958 -175.323
467 24.9972 9.95289 1.4 11.3937 -93.2118 16.8313
468 25.9972 9.95289 1.4 11.8288 -84.6105 -112.491
469 26.9972 9.95289 1.4 12.3299 -109.371 121.191
470 27.9972 9.95289 1.4 12.8892 -250 0
471 28.9972 9.95289 1.4 13.4995 -250 0
472 29.9972 9.95289 1.4 14.1542 -250 0
473 -28.0028 10.9529 1.4 49.3596 -250 0
474 -27.0028 10.9529 1.4 48.3785 -250 0
475 -26.0028 10.9529 1.4 47.3981 -250 0
476 -25.0028 10.9529 1.4 46.4186 -250 0
477 -24.0028 10.9529 1.4 45.44 -250 0
478 -23.0028 10.9529 1.4 44.4623 -250 0
479 -22.0028 10.9529 1.4 43.4857 -250 0
480 -21.0028 10.9529 1.4 42.5101 -250 0
481 -20.0028 10.9529 1.4 41.5357 -250 0
482 -19.0028 10.9529 1.4 40.5625 -250 0
483 -18.0028 10.9529 1.4 39.5907 -250 0
484 -17.0028 10.9529 1.4 38.6203 -250 0
485 -16.0028 10.9529 1.4 37.6514 -250 0
486 -15.0028 10.9529 1.4 36.6843 -250 0
487 -14.0028 10.9529 1.4 35.7189 -250 0
488 -13.0028 10.9529 1.4 34.7555 -250 0
489 -12.0028 10.9529 1.4 33.7942 -250 0
490 -11.0028 10.9529 1.4 32.8353 -250 0
491 -10.0028 10.9529 1.4 31.8788 -250 0
492 -9.00282 10.9529 1.4 30.9251 -250 0
493 -8.00282 10.9529 1.4 29.9745 -250 0
494 -7.00282 10.9529 1.4 29.0271 -250 0
495 -6.00282 10.9529 1.4 28.0834 -250 0
496 -5.00282 10.9529 1.4 27.1438 -86.0571 -13.207
497 -4.00282 10.9529 1.4 26.2086 -250 0
498 -3.00282 10.9529 1.4 25.2783 -250 0
499 -2.00282 10.9529 1.4 24.3536 -250 0
500 -1.00282 10.9529 1.4 23.4351 -250 0
501 -0.00282 10.9529 1.4 22.5235 -250 0
502 0.99718 10.9529 1.4 21.6197 -250 0
503 1.99718 10.9529 1.4 20.7248 -250 0
504 2.99718 10.9529 1.4 19.8399 -102.889 -101.797
505 3.99718 10.9529 1.4 18.9665 -111.763 -20.1985
506 4.99718 10.9529 1.4 18.1061 -250 0
507 5.99718 10.9529 1.4 17.2608 -250 0
508 6.99718 10.9529 1.4 16.4329 -250 0
509 7.99718 10.9529 1.4 15.6252 -250 0
510 8.99718 10.9529 1.4 14.8408 -88.7781 127.565
511 9.99718 10.9529 1.4 14.0839 -64.5546 30.2808
512 10.9972 10.9529 1.4 13.3589 -250 0
513 11.9972 10.9529 1.4 12.6714 -250 0
514 12.9972 10.9529 1.4 12.0279 -71.7843 2.26764
515 13.9972 10.9529 1.4 11.4357 -250 0
516 14.9972 10.9529 1.4 10.9032 -250 0
517 15.9972 10.9529 1.4 10.4395 -250 0
518 16.9972 10.9529 1.4 10.0543 -250 0
519 17.9972 10.9529 1.4 9.75673 -70.097 159.897
520 18.9972 10.9529 1.4 9.55503 -74.2595 66.9264
521 19.9972 10.9529 1.4 9.45533 -56.0925 -105.815
522 20.9972 10.9529 1.4 9.46087 -63.7125 84.5589
523 21.9972 10.9529 1.4 9.57146 -76.5144 -121.726
524 22.9972 10.9529 1.4 9.78354 -58.0181 28.7975
525 23.9972 10.9529 1.4 10.0907 -64.7509 -153.933
526 24.9972 10.9529 1.4 10.4846 -68.8383 166.861
527 25.9972 10.9529 1.4 10.9559 -86.5525 12.8493
528 26.9972 10.9529 1.4 11.4951 -96.7378 -64.7061
529 27.9972 10.9529 1.4 12.093 -75.7198 -50.2272
530 28.9972 10.9529 1.4 12.7415 -250 0
531 29.9972 10.9529 1.4 13.4332 -250 0
532 -28.0028 11.9529 1.4 49.1781 -250 0
533 -27.0028 11.9529 1.4 48.1933 -250 0
534 -26.0028 11.9529 1.4 47.209 -250 0
535 -25.0028 11.9529 1.4 46.2255 -250 0
536 -24.0028 11.9529 1.4 45.2427 -250 0
537 -23.0028 11.9529 1.4 44.2607 -250 0
538 -22.0028 11.9529 1.4 43.2795 -250 0
539 -21.0028 11.9529 1.4 42.2991 -250 0
540 -20.0028 11.9529 1.4 41.3198 -94.9842 97.9372
541 -19.0028 11.9529 1.4 40.3414 -114.618 -29.3478
542 -18.0028 11.9529 1.4 39.3641 -250 0
543 -17.0028 11.9529 1.4 38.388 -250 0
544 -16.0028 11.9529 1.4 37.4131 -87.3838 -35.2112
545 -15.0028 11.9529 1.4 36.4396 -88.1237 -125.802
546 -14.0028 11.9529 1.4 35.4676 -112.549 -48.665
547 -13.0028 11.9529 1.4 34.4972 -106.736 -27.096
548 -12.0028 11.9529 1.4 33.5285 -102.833 120.617
549 -11.0028 11.9529 1.4 32.5617 -106.316 -149.492
550 -10.0028 11.9529 1.4 31.597 -102.277 -92.7209
551 -9.00282 11.9529 1.4 30.6345 -101.984 -19.5858
552 -8.00282 11.9529 1.4 29.6746 -101.681 53.3971
553 -7.00282 11.9529 1.4 28.7173 -250 0
554 -6.00282 11.9529 1.4 27.7631 -82.6069 -178.34
555 -5.00282 11.9529 1.4 26.8122 -83.2803 -143.183
556 -4.00282 11.9529 1.4 25.865 -77.5514 164.655
557 -3.00282 11.9529 1.4 24.922 -250 0
558 -2.00282 11.9529 1.4 23.9835 -81.0109 87.7238
559 -1.00282 11.9529 1.4 23.0502 -73.9213 101.332
560 -0.00282 11.9529 1.4 22.1228 -75.3583 0.301754
561 0.99718 11.9529 1.4 21.202 -73.069 175.532
562 1.99718 11.9529 1.4 20.2886 -80.0574 -80.6376
563 2.99718 11.9529 1.4 19.3838 -74.6077 117.35
564 3.99718 11.9529 1.4 18.4888 -93.8329 173.748
565 4.99718 11.9529 1.4 17.6052 -75.1158 -119.665
566 5.99718 11.9529 1.4 16.7346 -75.8954 -122.441
567 6.99718 11.9529 1.4 15.8793 -80.4925 106.105
568 7.99718 11.9529 1.4 15.0418 -77.4013 122.213
569 8.99718 11.9529 1.4 14.2254 -79.6778 -159.501
570 9.99718 11.9529 1.4 13.4338 -70.9742 -155.764
571 10.9972 11.9529 1.4 12.6717 -71.3543 -111.322
572 11.9972 11.9529 1.4 11.9447 -106.116 65.0455
573 12.9972 11.9529 1.4 11.2597 -74.1039 152.974
574 13.9972 11.9529 1.4 10.6247 -100.19 88.9651
575 14.9972 11.9529 1.4 10.0494 -82.5105 130.796
576 15.9972 11.9529 1.4 9.54436 -58.1509 7.36207
577 16.9972 11.9529 1.4 9.12138 -52.5912 36.3437
578 17.9972 11.9529 1.4 8.79228 -77.627 -57.1716
579 18.9972 11.9529 1.4 8.56791 -57.4544 -49.976
580 19.9972 11.9529 1.4 8.45658 -54.6608 -154.131
581 20.9972 11.9529 1.4 8.46278 -59.0402 -124.145
582 21.9972 11.9529 1.4 8.58623 -58.6272 -118.824
583 22.9972 11.9529 1.4 8.82203 -62.6334 64.5774
584 23.9972 11.9529 1.4 9.16149 -74.8183 -32.4294
585 24.9972 11.9529 1.4 9.59363 -250 0
586 25.9972 11.9529 1.4 10.1066 -67.3057 3.24614
587 26.9972 11.9529 1.4 10.6887 -100.046 -35.2197
588 27.9972 11.9529 1.4 11.3293 -61.1281 -120.728
589 28.9972 11.9529 1.4 12.019 -250 0
590 29.9972 11.9529 1.4 12.75 -250 0
591 -28.0028 12.9529 1.4 49.0163 -111.13 74.1094
592 -27.0028 12.9529 1.4 48.0281 -115.721 33.1027
593 -26.0028 12.9529 1.4 47.0405 -118.604 174.486
594 -25.0028 12.9529 1.4 46.0533 -120.761 -166.175
595 -24.0028 12.9529 1.4 45.0668 -108.861 -115.578
596 -23.0028 12.9529 1.4 44.0808 -95.7319 4.19126
597 -22.0028 12.9529 1.4 43.0955 -110.233 -40.3992
598 -21.0028 12.9529 1.4 42.1109 -110.216 26.6325
599 -20.0028 12.9529 1.4 41.127 -110.212 93.2473
600 -19.0028 12.9529 1.4 40.144 -110.223 159.404
601 -18.0028 12.9529 1.4 39.1618 -75.3394 -120.551
602 -17.0028 12.9529 1.4 38.1805 -124.043 27.0366
603 -16.0028 12.9529 1.4 37.2002 -123.556 96.9424
604 -15.0028 12.9529 1.4 36.2209 -123.056 166.525
605 -14.0028 12.9529 1.4 35.2429 -122.54 -124.248
606 -13.0028 12.9529 1.4 34.2661 -72.4067 -58.9378
607 -12.0028 12.9529 1.4 33.2907 -102.685 -26.9348
608 -11.0028 12.9529 1.4 32.3168 -102.408 41.1022
609 -10.0028 12.9529 1.4 31.3446 -102.121 108.615
610 -9.00282 12.9529 1.4 30.3741 -101.825 175.542
611 -8.00282 12.9529 1.4 29.4056 -77.383 -143.107
612 -7.00282 12.9529 1.4 28.4393 -250 0
613 -6.00282 12.9529 1.4 27.4754 -250 0
614 -5.00282 12.9529 1.4 26.5142 -250 0
615 -4.00282 12.9529 1.4 25.556 -88.0211 -28.9539
616 -3.00282 12.9529 1.4 24.6011 -68.7393 30.8161
617 -2.00282 12.9529 1.4 23.6499 -81.4442 -69.8107
618 -1.00282 12.9529 1.4 22.703 -250 0
619 -0.00282 12.9529 1.4 21.7607 -250 0
620 0.99718 12.9529 1.4 20.8239 -79.078 46.1336
621 1.99718 12.9529 1.4 19.8932 -69.0751 1.39815
622 2.99718 12.9529 1.4 18.9695 -88.3951 34.22
623 3.99718 12.9529 1.4 18.054 -250 0
624 4.99718 12.9529 1.4 17.148 -80.9049 153.036
625 5.99718 12.9529 1.4 16.2529 -73.3704 -49.4281
626 6.99718 12.9529 1.4 15.3708 -61.3668 141.08
627 7.99718 12.9529 1.4 14.504 -82.7276 136.266
628 8.99718 12.9529 1.4 13.6555 -250 0
629 9.99718 12.9529 1.4 12.8287 -250 0
630 10.9972 12.9529 1.4 12.0284 -84.3029 -83.2725
631 11.9972 12.9529 1.4 11.2599 -54.4925 19.9544
632 12.9972 12.9529 1.4 10.5305 -98.3573 -74.2033
633 13.9972 12.9529 1.4 9.84864 -95.0078 67.9814
634 14.9972 12.9529 1.4 9.22499 -89.583 30.3563
635 15.9972 12.9529 1.4 8.6721 -102.327 -66.8054
636 16.9972 12.9529 1.4 8.20427 -53.7443 146.765
637 17.9972 12.9529 1.4 7.83676 -54.1174 -129.6
638 18.9972 12.9529 1.4 7.58417 -87.0515 146.926
639 19.9972 12.9529 1.4 7.45817 -82.6286 -46.8251
640 20.9972 12.9529 1.4 7.4652 -56.8655 88.6133
641 21.9972 12.9529 1.4 7.60486 -65.9774 31.5669
642 22.9972 12.9529 1.4 7.87011 -84.7674 3.81124
643 23.9972 12.9529 1.4 8.24885 -85.6719 119.917
644 24.9972 12.9529 1.4 8.7263 -250 0
645 25.9972 12.9529 1.4 9.28725 -93.6639 65.5825
646 26.9972 12.9529 1.4 9.91755 -63.1111 135.829
647 27.9972 12.9529 1.4 10.6048 -76.3281 18.5397
648 28.9972 12.9529 1.4 11.3388 -250 0
649 29.9972 12.9529 1.4 12.1108 -250 0
650 -28.0028 13.9529 1.4 48.8744 -250 0
651 -27.0028 13.9529 1.4 47.8833 -250 0
652 -26.0028 13.9529 1.4 46.8926 -250 0
653 -25.0028 13.9529 1.4 45.9023 -250 0
654 -24.0028 13.9529 1.4 44.9124 -123.643 72.8737
655 -23.0028 13.9529 1.4 43.923 -123.241 139.914
656 -22.0028 13.9529 1.4 42.9341 -117 82.5545
657 -21.0028 13.9529 1.4 41.9457 -95.0007 -20.2624
658 -20.0028 13.9529 1.4 40.9578 -99.922 88.9443
659 -19.0028 13.9529 1.4 39.9706 -109.467 140
660 -18.0028 13.9529 1.4 38.984 -250 0
661 -17.0028 13.9529 1.4 37.9981 -250 0
662 -16.0028 13.9529 1.4 37.013 -250 0
663 -15.0028 13.9529 1.4 36.0287 -88.6987 -160.69
664 -14.0028 13.9529 1.4 35.0453 -105.372 104.438
665 -13.0028 13.9529 1.4 34.0628 -250 0
666 -12.0028 13.9529 1.4 33.0814 -98.3433 77.842
667 -11.0028 13.9529 1.4 32.1012 -98.8132 -165.687
668 -10.0028 13.9529 1.4 31.1222 -84.5177 91.6871
669 -9.00282 13.9529 1.4 30.1446 -82.4459 39.1937
670 -8.00282 13.9529 1.4 29.1685 -250 0
671 -7.00282 13.9529 1.4 28.1941 -250 0
672 -6.00282 13.9529 1.4 27.2215 -81.2357 177.923
673 -5.00282 13.9529 1.4 26.251 -75.706 -140.509
674 -4.00282 13.9529 1.4 25.2828 -75.9291 -46.6998
675 -3.00282 13.9529 1.4 24.3172 -250 0
676 -2.00282 13.9529 1.4 23.3544 -82.8959 -145.863
677 -1.00282 13.9529 1.4 22.395 -86.9785 -114.346
678 -0.00282 13.9529 1.4 21.4392 -77.1226 -134.464
679 0.99718 13.9529 1.4 20.4877 -86.6246 121.161
680 1.99718 13.9529 1.4 19.541 -250 0
681 2.99718 13.9529 1.4 18.5998 -70.0166 -168.71
682 3.99718 13.9529 1.4 17.6652 -90.2702 -98.7864
683 4.99718 13.9529 1.4 16.7381 -79.7243 2.09038
684 5.99718 13.9529 1.4 15.8199 -66.7383 -36.5661
685 6.99718 13.9529 1.4 14.9122 -88.3312 -34.1386
686 7.99718 13.9529 1.4 14.017 -64.9426 15.3282
687 8.99718 13.9529 1.4 13.1371 -83.1889 -82.8507
688 9.99718 13.9529 1.4 12.2755 -78.8658 -124.905
689 10.9972 13.9529 1.4 11.4364 -85.8396 168.953
690 11.9972 13.9529 1.4 10.6253 -77.2324 -78.0045
691 12.9972 13.9529 1.4 9.84893 -59.4926 -151.831
692 13.9972 13.9529 1.4 9.11626 -72.1238 122.172
693 14.9972 13.9529 1.4 8.43866 -78.2235 92.1331
694 15.9972 13.9529 1.4 7.83044 -76.9667 -17.7562
695 16.9972 13.9529 1.4 7.30894 -74.2497 55.6071
696 17.9972 13.9529 1.4 6.89386 -49.7341 159.988
697 18.9972 13.9529 1.4 6.60531 -85.9205 162.312
698 19.9972 13.9529 1.4 6.46026 -53.1394 -73.5922
699 20.9972 13.9529 1.4 6.46836 -59.3672 127.488
700 21.9972 13.9529 1.4 6.62906 -81.4941 -156.165
701 22.9972 13.9529 1.4 6.93176 -84.7104 -59.7734
702 23.9972 13.9529 1.4 7.35894 -82.879 156.926
703 24.9972 13.9529 1.4 7.89042 -80.9544 -74.3752
704 25.9972 13.9529 1.4 8.50668 -63.0787 -68.9675
705 26.9972 13.9529 1.4 9.19067 -79.8185 -147.363
706 27.9972 13.9529 1.4 9.9284 -68.4969 -53.8836
707 28.9972 13.9529 1.4 10.7088 -250 0
708 29.9972 13.9529 1.4 11.5231 -250 0
709 -28.0028 14.9529 1.4 48.7526 -250 0
710 -27.0028 14.9529 1.4 47.759 -250 0
711 -26.0028 14.9529 1.4 46.7656 -250 0
712 -25.0028 14.9529 1.4 45.7726 -250 0
713 -24.0028 14.9529 1.4 44.7799 -250 0
714 -23.0028 14.9529 1.4 43.7874 -250 0
715 -22.0028 14.9529 1.4 42.7954 -250 0
716 -21.0028 14.9529 1.4 41.8037 -250 0
717 -20.0028 14.9529 1.4 40.8124 -250 0
718 -19.0028 14.9529 1.4 39.8216 -250 0
719 -18.0028 14.9529 1.4 38.8312 -250 0
720 -17.0028 14.9529 1.4 37.8414 -250 0
721 -16.0028 14.9529 1.4 36.852 -250 0
722 -15.0028 14.9529 1.4 35.8633 -250 0
723 -14.0028 14.9529 1.4 34.8752 -250 0
724 -13.0028 14.9529 1.4 33.8879 -250 0
725 -12.0028 14.9529 1.4 32.9013 -250 0
726 -11.0028 14.9529 1.4 31.9155 -250 0
727 -10.0028 14.9529 1.4 30.9306 -250 0
728 -9.00282 14.9529 1.4 29.9467 -250 0
729 -8.00282 14.9529 1.4 28.964 -250 0
730 -7.00282 14.9529 1.4 27.9824 -77.9779 74.0857
731 -6.00282 14.9529 1.4 27.0022 -250 0
732 -5.00282 14.9529 1.4 26.0236 -76.4009 121.908
733 -4.00282 14.9529 1.4 25.0466 -250 0
734 -3.00282 14.9529 1.4 24.0715 -250 0
735 -2.00282 14.9529 1.4 23.0985 -250 0
736 -1.00282 14.9529 1.4 22.1279 -250 0
737 -0.00282 14.9529 1.4 21.1601 -250 0
738 0.99718 14.9529 1.4 20.1954 -250 0
739 1.99718 14.9529 1.4 19.2343 -250 0
740 2.99718 14.9529 1.4 18.2774 -250 0
741 3.99718 14.9529 1.4 17.3254 -250 0
742 4.99718 14.9529 1.4 16.3791 -250 0
743 5.99718 14.9529 1.4 15.4395 -250 0
744 6.99718 14.9529 1.4 14.508 -250 0
745 7.99718 14.9529 1.4 13.5863 -250 0
746 8.99718 14.9529 1.4 12.6765 -82.333 119.728
747 9.99718 14.9529 1.4 11.7812 -74.8854 -165.397
748 10.9972 14.9529 1.4 10.9042 -250 0
749 11.9972 14.9529 1.4 10.0502 -250 0
750 12.9972 14.9529 1.4 9.22562 -250 0
751 13.9972 14.9529 1.4 8.439 -52.6808 -46.9743
752 14.9972 14.9529 1.4 7.70205 -54.8245 -9.28992
753 15.9972 14.9529 1.4 7.03039 -55.2583 158.191
754 16.9972 14.9529 1.4 6.44446 -65.4592 51.9128
755 17.9972 14.9529 1.4 5.96958 -250 0
756 18.9972 14.9529 1.4 5.63389 -250 0
757 19.9972 14.9529 1.4 5.4631 -250 0
758 20.9972 14.9529 1.4 5.47268 -250 0
759 21.9972 14.9529 1.4 5.66171 -250 0
760 22.9972 14.9529 1.4 6.0133 -250 0
761 23.9972 14.9529 1.4 6.50112 -250 0
762 24.9972 14.9529 1.4 7.09713 -250 0
763 25.9972 14.9529 1.4 7.77651 -250 0
764 26.9972 14.9529 1.4 8.51932 -250 0
765 27.9972 14.9529 1.4 9.31041 -61.3565 162.81
766 28.9972 14.9529 1.4 10.1385 -250 0
767 29.9972 14.9529 1.4 10.9951 -250 0
768 -28.0028 15.9529 1.4 48.6511 -250 0
769 -27.0028 15.9529 1.4 47.6553 -250 0
770 -26.0028 15.9529 1.4 46.6598 -250 0
771 -25.0028 15.9529 1.4 45.6644 -153.334 107.492
772 -24.0028 15.9529 1.4 44.6693 -250 0
773 -23.0028 15.9529 1.4 43.6744 -250 0
774 -22.0028 15.9529 1.4 42.6797 -250 0
775 -21.0028 15.9529 1.4 41.6853 -250 0
776 -20.0028 15.9529 1.4 40.6911 -250 0
777 -19.0028 15.9529 1.4 39.6972 -250 0
778 -18.0028 15.9529 1.4 38.7037 -250 0
779 -17.0028 15.9529 1.4 37.7105 -250 0
780 -16.0028 15.9529 1.4 36.7176 -250 0
781 -15.0028 15.9529 1.4 35.7252 -250 0
782 -14.0028 15.9529 1.4 34.7332 -250 0
783 -13.0028 15.9529 1.4 33.7416 -250 0
784 -12.0028 15.9529 1.4 32.7506 -250 0
785 -11.0028 15.9529 1.4 31.7602 -250 0
786 -10.0028 15.9529 1.4 30.7703 -250 0
787 -9.00282 15.9529 1.4 29.7812 -250 0
788 -8.00282 15.9529 1.4 28.7927 -107.477 25.3138
789 -7.00282 15.9529 1.4 27.8052 -76.7846 129.159
790 -6.00282 15.9529 1.4 26.8185 -76.8719 -71.8338
791 -5.00282 15.9529 1.4 25.8329 -250 0
792 -4.00282 15.9529 1.4 24.8484 -250 0
793 -3.00282 15.9529 1.4 23.8652 -250 0
794 -2.00282 15.9529 1.4 22.8834 -250 0
795 -1.00282 15.9529 1.4 21.9033 -92.5674 152.076
796 -0.00282 15.9529 1.4 20.9251 -93.8779 145.281
797 0.99718 15.9529 1.4 19.9491 -250 0
798 1.99718 15.9529 1.4 18.9755 -250 0
799 2.99718 15.9529 1.4 18.0049 -250 0
800 3.99718 15.9529 1.4 17.0376 -250 0
801 4.99718 15.9529 1.4 16.0743 -250 0
802 5.99718 15.9529 1.4 15.1159 -250 0
803 6.99718 15.9529 1.4 14.1631 -250 0
804 7.99718 15.9529 1.4 13.2174 -82.1645 -32.3272
805 8.99718 15.9529 1.4 12.2802 -78.1568 69.8464
806 9.99718 15.9529 1.4 11.3538 -59.6431 -89.5614
807 10.9972 15.9529 1.4 10.4409 -250 0
808 11.9972 15.9529 1.4 9.54556 -250 0
809 12.9972 15.9529 1.4 8.67309 -74.7016 44.7297
810 13.9972 15.9529 1.4 7.83118 -53.4651 -127.044
811 14.9972 15.9529 1.4 7.0308 -50.2249 137.4
812 15.9972 15.9529 1.4 6.28784 -53.314 -161.452
813 16.9972 15.9529 1.4 5.62509 -53.3819 8.48592
814 17.9972 15.9529 1.4 5.07409 -250 0
815 18.9972 15.9529 1.4 4.67453 -250 0
816 19.9972 15.9529 1.4 4.46721 -250 0
817 20.9972 15.9529 1.4 4.47892 -250 0
818 21.9972 15.9529 1.4 4.70803 -250 0
819 22.9972 15.9529 1.4 5.12546 -250 0
820 23.9972 15.9529 1.4 5.68991 -250 0
821 24.9972 15.9529 1.4 6.36238 -250 0
822 25.9972 15.9529 1.4 7.11229 -95.3743 104.288
823 26.9972 15.9529 1.4 7.91766 -61.8509 -5.21944
824 27.9972 15.9529 1.4 8.76323 -64.6433 164.02
825 28.9972 15.9529 1.4 9.63841 -250 0
826 29.9972 15.9529 1.4 10.5358 -250 0
827 -28.0028 16.9529 1.4 48.5699 -250 0
828 -27.0028 16.9529 1.4 47.5725 -154.442 8.49203
829 -26.0028 16.9529 1.4 46.5752 -250 0
830 -25.0028 16.9529 1.4 45.578 -146.414 117.033
831 -24.0028 16.9529 1.4 44.5809 -250 0
832 -23.0028 16.9529 1.4 43.584 -250 0
833 -22.0028 16.9529 1.4 42.5872 -250 0
834 -21.0028 16.9529 1.4 41.5905 -250 0
835 -20.0028 16.9529 1.4 40.594 -250 0
836 -19.0028 16.9529 1.4 39.5977 -250 0
837 -18.0028 16.9529 1.4 38.6016 -250 0
838 -17.0028 16.9529 1.4 37.6057 -250 0
839 -16.0028 16.9529 1.4 36.61 -250 0
840 -15.0028 16.9529 1.4 35.6146 -250 0
841 -14.0028 16.9529 1.4 34.6194 -250 0
842 -13.0028 16.9529 1.4 33.6245 -250 0
843 -12.0028 16.9529 1.4 32.63 -127.078 140.953
844 -11.0028 16.9529 1.4 31.6357 -100.074 -0.241878
845 -10.0028 16.9529 1.4 30.6419 -107.136 145.414
846 -9.00282 16.9529 1.4 29.6484 -98.6007 -162.381
847 -8.00282 16.9529 1.4 28.6554 -93.9479 41.5806
848 -7.00282 16.9529 1.4 27.6629 -250 0
849 -6.00282 16.9529 1.4 26.671 -250 0
850 -5.00282 16.9529 1.4 25.6797 -250 0
851 -4.00282 16.9529 1.4 24.6891 -250 0
852 -3.00282 16.9529 1.4 23.6993 -250 0
853 -2.00282 16.9529 1.4 22.7104 -93.6859 -63.5386
854 -1.00282 16.9529 1.4 21.7225 -105.044 -93.3694
855 -0.00282 16.9529 1.4 20.7357 -107.262 108.152
856 0.99718 16.9529 1.4 19.7503 -98.1676 -41.0429
857 1.99718 16.9529 1.4 18.7665 -250 0
858 2.99718 16.9529 1.4 17.7844 -92.6397 123.18
859 3.99718 16.9529 1.4 16.8045 -250 0
860 4.99718 16.9529 1.4 15.827 -250 0
861 5.99718 16.9529 1.4 14.8526 -250 0
862 6.99718 16.9529 1.4 13.8818 -77.0129 -19.0462
863 7.99718 16.9529 1.4 12.9155 -62.2099 -160.144
864 8.99718 16.9529 1.4 11.9547 -78.2142 91.5297
865 9.99718 16.9529 1.4 11.0009 -72.1944 -167.202
866 10.9972 16.9529 1.4 10.056 -75.3053 -167.274
867 11.9972 16.9529 1.4 9.12296 -66.3893 161.559
868 12.9972 16.9529 1.4 8.20567 -63.1297 90.0566
869 13.9972 16.9529 1.4 7.31012 -68.5431 161.93
870 14.9972 16.9529 1.4 6.44536 -62.1149 -114.476
871 15.9972 16.9529 1.4 5.6256 -49.2803 -46.4692
872 16.9972 16.9529 1.4 4.87362 -51.7347 63.7177
873 17.9972 16.9529 1.4 4.22575 -250 0
874 18.9972 16.9529 1.4 3.73654 -250 0
875 19.9972 16.9529 1.4 3.47369 -250 0
876 20.9972 16.9529 1.4 3.48874 -54.9162 123.56
877 21.9972 16.9529 1.4 3.77837 -55.4347 176.199
878 22.9972 16.9529 1.4 4.28729 -47.9909 34.5559
879 23.9972 16.9529 1.4 4.9483 -50.9886 168.714
880 24.9972 16.9529 1.4 5.7088 -61.2486 -11.575
881 25.9972 16.9529 1.4 6.53415 -59.4536 -161.426
882 26.9972 16.9529 1.4 7.4027 -69.5711 -78.119
883 27.9972 16.9529 1.4 8.30089 -62.1305 -132.057
884 28.9972 16.9529 1.4 9.22006 -250 0
885 29.9972 16.9529 1.4 10.1545 -250 0
886 -28.0028 17.9529 1.4 48.5093 -120.524 -157.658
887 -27.0028 17.9529 1.4 47.5106 -250 0
888 -26.0028 17.9529 1.4 46.5119 -250 0
889 -25.0028 17.9529 1.4 45.5133 -250 0
890 -24.0028 17.9529 1.4 44.5148 -250 0
891 -23.0028 17.9529 1.4 43.5163 -121.043 90.6787
892 -22.0028 17.9529 1.4 42.518 -250 0
893 -21.0028 17.9529 1.4 41.5196 -250 0
894 -20.0028 17.9529 1.4 40.5214 -153.638 12.7344
895 -19.0028 17.9529 1.4 39.5233 -154.168 -44.7476
896 -18.0028 17.9529 1.4 38.5253 -154.799 -109.928
897 -17.0028 17.9529 1.4 37.5273 -250 0
898 -16.0028 17.9529 1.4 36.5295 -250 0
899 -15.0028 17.9529 1.4 35.5318 -250 0
900 -14.0028 17.9529 1.4 34.5343 -250 0
901 -13.0028 17.9529 1.4 33.5368 -90.6066 -73.2563
902 -12.0028 17.9529 1.4 32.5396 -110.409 -79.2894
903 -11.0028 17.9529 1.4 31.5425 -116.329 -74.435
904 -10.0028 17.9529 1.4 30.5456 -106.247 55.3647
905 -9.00282 17.9529 1.4 29.5489 -93.3672 -140.898
906 -8.00282 17.9529 1.4 28.5525 -80.6312 -95.2415
907 -7.00282 17.9529 1.4 27.5563 -250 0
908 -6.00282 17.9529 1.4 26.5604 -250 0
909 -5.00282 17.9529 1.4 25.5648 -250 0
910 -4.00282 17.9529 1.4 24.5695 -250 0
911 -3.00282 17.9529 1.4 23.5747 -83.5971 72.6667
912 -2.00282 17.9529 1.4 22.5803 -250 0
913 -1.00282 17.9529 1.4 21.5865 -250 0
914 -0.00282 17.9529 1.4 20.5932 -94.8959 25.6145
915 0.99718 17.9529 1.4 19.6007 -95.3422 -31.1136
916 1.99718 17.9529 1.4 18.6089 -74.2878 -71.252
917 2.99718 17.9529 1.4 17.6181 -90.1798 152.461
918 3.99718 17.9529 1.4 16.6283 -250 0
919 4.99718 17.9529 1.4 15.6399 -250 0
920 5.99718 17.9529 1.4 14.653 -250 0
921 6.99718 17.9529 1.4 13.668 -58.7842 0.849619
922 7.99718 17.9529 1.4 12.6854 -69.5644 -125.521
923 8.99718 17.9529 1.4 11.7057 -70.233 -26.9612
924 9.99718 17.9529 1.4 10.7298 -68.4268 47.2664
925 10.9972 17.9529 1.4 9.75879 -60.0077 173.667
926 11.9972 17.9529 1.4 8.79425 -61.3589 175.428
927 12.9972 17.9529 1.4 7.8386 -70.6335 -0.446491
928 13.9972 17.9529 1.4 6.89554 -65.9017 -68.4934
929 14.9972 17.9529 1.4 5.97103 -81.7576 -150.632
930 15.9972 17.9529 1.4 5.07523 -62.6831 164.714
931 16.9972 17.9529 1.4 4.22643 -50.1374 129.914
932 17.9972 17.9529 1.4 3.45941 -250 0
933 18.9972 17.9529 1.4 2.84118 -250 0
934 19.9972 17.9529 1.4 2.48537 -250 0
935 20.9972 17.9529 1.4 2.50636 -51.6003 92.0569
936 21.9972 17.9529 1.4 2.89596 -46.4426 178.027
937 22.9972 17.9529 1.4 3.53432 -48.2528 35.3206
938 23.9972 17.9529 1.4 4.31233 -50.3365 -176.061
939 24.9972 17.9529 1.4 5.1673 -63.0163 -113.277
940 25.9972 17.9529 1.4 6.06677 -57.638 -120.759
941 26.9972 17.9529 1.4 6.9936 -52.4646 -167.711
942 27.9972 17.9529 1.4 7.93822 -50.0029 -165.388
943 28.9972 17.9529 1.4 8.89494 -70.4731 -66.8162
944 29.9972 17.9529 1.4 9.86026 -60.2123 -13.4575
945 -28.0028 18.9529 1.4 48.4691 -250 0
946 -27.0028 18.9529 1.4 47.4696 -250 0
947 -26.0028 18.9529 1.4 46.4701 -250 0
948 -25.0028 18.9529 1.4 45.4706 -250 0
949 -24.0028 18.9529 1.4 44.4711 -250 0
950 -23.0028 18.9529 1.4 43.4716 -250 0
951 -22.0028 18.9529 1.4 42.4722 -250 0
952 -21.0028 18.9529 1.4 41.4728 -250 0
953 -20.0028 18.9529 1.4 40.4734 -250 0
954 -19.0028 18.9529 1.4 39.4741 -250 0
955 -18.0028 18.9529 1.4 38.4747 -250 0
956 -17.0028 18.9529 1.4 37.4755 -250 0
957 -16.0028 18.9529 1.4 36.4762 -250 0
958 -15.0028 18.9529 1.4 35.477 -250 0
959 -14.0028 18.9529 1.4 34.4779 -250 0
960 -13.0028 18.9529 1.4 33.4788 -250 0
961 -12.0028 18.9529 1.4 32.4798 -250 0
962 -11.0028 18.9529 1.4 31.4808 -112.945 -119.912
963 -10.0028 18.9529 1.4 30.4819 -97.3253 36.3498
964 -9.00282 18.9529 1.4 29.483 -79.2256 106.623
965 -8.00282 18.9529 1.4 28.4843 -250 0
966 -7.00282 18.9529 1.4 27.4856 -250 0
967 -6.00282 18.9529 1.4 26.487 -250 0
968 -5.00282 18.9529 1.4 25.4886 -250 0
969 -4.00282 18.9529 1.4 24.4903 -250 0
970 -3.00282 18.9529 1.4 23.4921 -250 0
971 -2.00282 18.9529 1.4 22.4941 -95.5755 28.9056
972 -1.00282 18.9529 1.4 21.4962 -99.1395 176.128
973 -0.00282 18.9529 1.4 20.4986 -91.8021 -22.2796
974 0.99718 18.9529 1.4 19.5012 -72.4016 61.6112
975 1.99718 18.9529 1.4 18.5041 -85.6974 0.0674995
976 2.99718 18.9529 1.4 17.5073 -95.5412 28.0581
977 3.99718 18.9529 1.4 16.5109 -250 0
978 4.99718 18.9529 1.4 15.515 -250 0
979 5.99718 18.9529 1.4 14.5197 -250 0
980 6.99718 18.9529 1.4 13.525 -70.4614 -100.771
981 7.99718 18.9529 1.4 12.5312 -64.6038 -65.3306
982 8.99718 18.9529 1.4 11.5384 -65.0457 -33.003
983 9.99718 18.9529 1.4 10.547 -74.1156 -41.1485
984 10.9972 18.9529 1.4 9.55744 -94.4056 128.348
985 11.9972 18.9529 1.4 8.57026 -63.373 176.566
986 12.9972 18.9529 1.4 7.58645 -60.5077 -167.048
987 13.9972 18.9529 1.4 6.60749 -64.5478 151.941
988 14.9972 18.9529 1.4 5.63593 -63.1643 -57.9582
989 15.9972 18.9529 1.4 4.67638 -61.1309 -172.456
990 16.9972 18.9529 1.4 3.73808 -79.8445 107.365
991 17.9972 18.9529 1.4 2.84219 -250 0
992 18.9972 18.9529 1.4 2.0452 -250 0
993 19.9972 18.9529 1.4 1.51248 -250 0
994 20.9972 18.9529 1.4 1.54673 -53.9846 -153.69
995 21.9972 18.9529 1.4 2.12065 -43.9194 -103.549
996 22.9972 18.9529 1.4 2.9329 -45.6988 -49.5554
997 23.9972 18.9529 1.4 3.83493 -52.098 164.594
998 24.9972 18.9529 1.4 4.77614 -61.2786 -162.556
999 25.9972 18.9529 1.4 5.73727 -48.308 -72.3542
1000 26.9972 18.9529 1.4 6.70977 -54.6388 -90.4166
1001 27.9972 18.9529 1.4 7.68933 -62.0543 -69.4355
1002 28.9972 18.9529 1.4 8.67356 -59.6965 166.742
1003 29.9972 18.9529 1.4 9.66102 -63.4717 154.126
1004 -28.0028 19.9529 1.4 48.4497 -250 0
1005 -27.0028 19.9529 1.4 47.4497 -250 0
1006 -26.0028 19.9529 1.4 46.4497 -250 0
1007 -25.0028 19.9529 1.4 45.4498 -250 0
1008 -24.0028 19.9529 1.4 44.4498 -250 0
1009 -23.0028 19.9529 1.4 43.4499 -250 0
1010 -22.0028 19.9529 1.4 42.4499 -250 0
1011 -21.0028 19.9529 1.4 41.45 -250 0
1012 -20.0028 19.9529 1.4 40.4501 -250 0
1013 -19.0028 19.9529 1.4 39.4501 -250 0
1014 -18.0028 19.9529 1.4 38.4502 -250 0
1015 -17.0028 19.9529 1.4 37.4503 -250 0
1016 -16.0028 19.9529 1.4 36.4503 -250 0
1017 -15.0028 19.9529 1.4 35.4504 -250 0
1018 -14.0028 19.9529 1.4 34.4505 -250 0
1019 -13.0028 19.9529 1.4 33.4506 -250 0
1020 -12.0028 19.9529 1.4 32.4507 -250 0
1021 -11.0028 19.9529 1.4 31.4508 -250 0
1022 -10.0028 19.9529 1.4 30.4509 -94.2165 67.8693
1023 -9.00282 19.9529 1.4 29.451 -250 0
1024 -8.00282 19.9529 1.4 28.4511 -250 0
1025 -7.00282 19.9529 1.4 27.4512 -250 0
1026 -6.00282 19.9529 1.4 26.4514 -250 0
1027 -5.00282 19.9529 1.4 25.4515 -250 0
1028 -4.00282 19.9529 1.4 24.4517 -250 0
1029 -3.00282 19.9529 1.4 23.4518 -250 0
1030 -2.00282 19.9529 1.4 22.452 -102.306 116.906
1031 -1.00282 19.9529 1.4 21.4522 -108.247 157.285
1032 -0.00282 19.9529 1.4 20.4524 -72.6511 -141.2
1033 0.99718 19.9529 1.4 19.4527 -93.1402 159.467
1034 1.99718 19.9529 1.4 18.453 -88.7691 172.201
1035 2.99718 19.9529 1.4 17.4533 -92.7037 -143.19
1036 3.99718 19.9529 1.4 16.4536 -250 0
1037 4.99718 19.9529 1.4 15.454 -250 0
1038 5.99718 19.9529 1.4 14.4545 -250 0
1039 6.99718 19.9529 1.4 13.455 -68.572 104.057
1040 7.99718 19.9529 1.4 12.4556 -67.9311 177.13
1041 8.99718 19.9529 1.4 11.4562 -65.6317 -97.1468
1042 9.99718 19.9529 1.4 10.4571 -69.3939 -51.6574
1043 10.9972 19.9529 1.4 9.45807 -65.8213 54.334
1044 11.9972 19.9529 1.4 8.45931 -62.0595 150.003
1045 12.9972 19.9529 1.4 7.46088 -61.0772 -140.117
1046 13.9972 19.9529 1.4 6.46293 -57.2548 -83.6441
1047 14.9972 19.9529 1.4 5.46574 -54.0238 -152.191
1048 15.9972 19.9529 1.4 4.46979 -60.9824 -156.311
1049 16.9972 19.9529 1.4 3.47618 -54.677 88.6278
1050 17.9972 19.9529 1.4 2.48769 -250 0
1051 18.9972 19.9529 1.4 1.51439 -250 0
1052 19.9972 19.9529 1.4 0.630984 -250 0
1053 20.9972 19.9529 1.4 0.709167 -33.1317 89.8291
1054 21.9972 19.9529 1.4 1.61484 -42.6182 -128.093
1055 22.9972 19.9529 1.4 2.59084 -46.2419 -132.878
1056 23.9972 19.9529 1.4 3.58012 -49.1265 176.122
1057 24.9972 19.9529 1.4 4.57406 -50.7787 87.2816
1058 25.9972 19.9529 1.4 5.57017 -56.5878 2.20448
1059 26.9972 19.9529 1.4 6.56746 -57.2643 -53.2606
1060 27.9972 19.9529 1.4 7.56547 -60.1166 -98.2069
1061 28.9972 19.9529 1.4 8.56394 -62.1976 163.501
1062 29.9972 19.9529 1.4 9.56274 -62.0797 80.038
