#Rx
# X(m), Y(m), Z(m), Distance(m), Power (dBm) Phase (deg)
1 -7 11.25 1.4 12.8912 -68.2934 -122.226
2 -6.75 11.25 1.4 12.6517 -66.8754 -174.678
3 -6.5 11.25 1.4 12.4127 -75.9585 -139.373
4 -6.25 11.25 1.4 12.174 -60.7472 169.719
5 -6 11.25 1.4 11.9359 -64.5955 111.884
6 -5.75 11.25 1.4 11.6982 -60.4637 155.655
7 -5.5 11.25 1.4 11.461 -67.1302 83.7558
8 -5.25 11.25 1.4 11.2244 -62.5007 111.773
9 -5 11.25 1.4 10.9884 -64.3153 59.9272
10 -4.75 11.25 1.4 10.7531 -59.5941 45.2043
11 -4.5 11.25 1.4 10.5184 -64.1575 7.46624
12 -4.25 11.25 1.4 10.2844 -66.295 5.52437
13 -4 11.25 1.4 10.0512 -61.3765 -92.6659
14 -3.75 11.25 1.4 9.81886 -59.6813 -104.485
15 -3.5 11.25 1.4 9.58737 -77.285 -166.564
16 -3.25 11.25 1.4 9.35684 -59.3434 144.462
17 -3 11.25 1.4 9.12734 -62.4863 99.3128
18 -2.75 11.25 1.4 8.89893 -64.8935 28.083
19 -2.5 11.25 1.4 8.67173 -59.5967 -30.755
20 -2.25 11.25 1.4 8.4458 -66.855 -21.1116
21 -2 11.25 1.4 8.22128 -65.0689 173.235
22 -1.75 11.25 1.4 7.99826 -71.9947 110.034
23 -1.5 11.25 1.4 7.77688 -70.5981 167.496
24 -1.25 11.25 1.4 7.5573 -62.6903 161.151
25 -1 11.25 1.4 7.33965 -59.7874 73.8858
26 -0.75 11.25 1.4 7.12413 -61.9264 -11.6085
27 -0.5 11.25 1.4 6.91094 -55.5396 -136.808
28 -0.25 11.25 1.4 6.70029 -51.0084 135.317
29 -1.77636e-15 11.25 1.4 6.49243 -52.0901 15.2737
30 0.25 11.25 1.4 6.28764 -54.2534 -125.485
31 0.5 11.25 1.4 6.08623 -51.8072 100.236
32 0.75 11.25 1.4 5.88854 -50.4976 -26.802
33 1 11.25 1.4 5.69497 -52.1193 172.215
34 1.25 11.25 1.4 5.50595 -58.2091 -26.1485
35 1.5 11.25 1.4 5.32196 -61.956 -175.672
36 1.75 11.25 1.4 5.14355 -56.374 -1.56997
37 2 11.25 1.4 4.9713 -53.7894 175.229
38 2.25 11.25 1.4 4.8059 -50.986 -58.4045
39 2.5 11.25 1.4 4.64805 -57.6924 11.5597
40 2.75 11.25 1.4 4.49858 -56.9188 137.248
41 3 11.25 1.4 4.35832 -49.794 -145.518
42 3.25 11.25 1.4 4.22821 -46.7132 -156.477
43 3.5 11.25 1.4 4.1092 -46.8375 -176.588
44 3.75 11.25 1.4 4.00229 -49.3485 136.154
45 4 11.25 1.4 3.90846 -47.9555 36.3595
46 4.25 11.25 1.4 3.82869 -52.2703 -101.641
47 4.5 11.25 1.4 3.76386 -55.4096 81.8057
48 4.75 11.25 1.4 3.71476 -59.6686 12.9319
49 5 11.25 1.4 3.68201 -54.967 61.2067
50 5.25 11.25 1.4 3.66606 -50.2621 130.835
51 5.5 11.25 1.4 3.66712 -57.0166 65.8206
52 5.75 11.25 1.4 3.68518 -55.361 -44.1318
53 6 11.25 1.4 3.71999 -58.5251 82.9745
54 6.25 11.25 1.4 3.77109 -49.7767 -93.7892
55 6.5 11.25 1.4 3.83782 -46.1561 123.157
56 6.75 11.25 1.4 3.9194 -49.1999 -112.935
57 7 11.25 1.4 4.0149 -46.6841 -19.2869
58 7.25 11.25 1.4 4.12337 -45.2545 28.0886
59 7.5 11.25 1.4 4.24382 -46.36 67.1518
60 7.75 11.25 1.4 4.37525 -47.0893 50.9793
61 8 11.25 1.4 4.5167 -50.5524 -13.5362
62 8.25 11.25 1.4 4.66726 -50.2985 -98.5843
63 8.5 11.25 1.4 4.82609 -49.8765 -170.039
64 8.75 11.25 1.4 4.99238 -48.4124 59.383
65 9 11.25 1.4 5.16543 -48.8218 -78.5889
66 9.25 11.25 1.4 5.34457 -55.623 173.535
67 9.5 11.25 1.4 5.52922 -60.007 -12.4206
68 9.75 11.25 1.4 5.71883 -55.0305 75.0173
69 10 11.25 1.4 5.91293 -49.9087 -145.754
70 10.25 11.25 1.4 6.1111 -54.4601 -3.33309
71 10.5 11.25 1.4 6.31295 -56.2693 161.232
72 10.75 11.25 1.4 6.51814 -55.112 -51.9376
73 11 11.25 1.4 6.72636 -53.2318 66.3454
74 11.25 11.25 1.4 6.93734 -55.405 160.428
75 11.5 11.25 1.4 7.15084 -61.4794 -112.254
76 11.75 11.25 1.4 7.36663 -66.2371 33.1276
77 12 11.25 1.4 7.58453 -59.688 82.7212
78 12.25 11.25 1.4 7.80435 -87.135 63.0718
79 12.5 11.25 1.4 8.02593 -67.6781 53.2595
80 12.75 11.25 1.4 8.24914 -74.2851 -100.822
81 13 11.25 1.4 8.47385 -62.0197 -158.28
82 13.25 11.25 1.4 8.69994 -68.5924 -60.1522
83 13.5 11.25 1.4 8.9273 -63.1836 -49.9267
84 13.75 11.25 1.4 9.15584 -63.9908 14.6263
85 14 11.25 1.4 9.38548 -63.3805 71.7764
86 14.25 11.25 1.4 9.61613 -61.6861 113.518
87 14.5 11.25 1.4 9.84773 -63.444 174.306
88 14.75 11.25 1.4 10.0802 -61.4412 -168.794
89 15 11.25 1.4 10.3135 -67.1228 -117.019
90 15.25 11.25 1.4 10.5476 -64.9061 -81.1787
91 15.5 11.25 1.4 10.7823 -65.4099 -63.8621
92 15.75 11.25 1.4 11.0178 -68.0735 -61.6139
93 16 11.25 1.4 11.2539 -67.04 32.5846
94 16.25 11.25 1.4 11.4905 -62.6288 6.23609
95 16.5 11.25 1.4 11.7277 -68.4579 99.4123
96 16.75 11.25 1.4 11.9655 -64.6293 57.2344
97 17 11.25 1.4 12.2037 -69.9406 83.4057
98 17.25 11.25 1.4 12.4424 -73.1565 154.021
99 17.5 11.25 1.4 12.6815 -65.3098 115.192
100 17.75 11.25 1.4 12.9211 -69.3419 -130.762
101 18 11.25 1.4 13.161 -66.2905 116.521
102 18.25 11.25 1.4 13.4013 -74.6476 -109.919
103 18.5 11.25 1.4 13.6419 -65.1269 110.459
104 18.75 11.25 1.4 13.8829 -67.4167 -103.836
105 19 11.25 1.4 14.1242 -74.9993 32.7335
106 19.25 11.25 1.4 14.3658 -63.9807 156.16
107 19.5 11.25 1.4 14.6076 -67.6264 -11.7718
108 19.75 11.25 1.4 14.8498 -75.8562 75.1467
109 20 11.25 1.4 15.0922 -70.0142 154.24
110 20.25 11.25 1.4 15.3348 -68.787 -51.6391
111 20.5 11.25 1.4 15.5777 -66.0949 111.054
112 20.75 11.25 1.4 15.8208 -69.8901 -142.257
113 21 11.25 1.4 16.0641 -67.5706 -36.9609
114 21.25 11.25 1.4 16.3076 -67.3709 53.9839
115 21.5 11.25 1.4 16.5513 -69.5252 178.322
116 21.75 11.25 1.4 16.7952 -69.0174 -76.6261
117 22 11.25 1.4 17.0393 -66.8581 9.35988
118 22.25 11.25 1.4 17.2835 -70.4264 139.064
119 22.5 11.25 1.4 17.5279 -66.8481 -109.903
120 22.75 11.25 1.4 17.7724 -86.3122 -164.922
121 23 11.25 1.4 18.0171 -71.1833 40.3818
122 23.25 11.25 1.4 18.262 -71.2881 165.181
123 23.5 11.25 1.4 18.507 -69.2716 -123.42
124 23.75 11.25 1.4 18.7521 -72.0232 -79.2369
125 24 11.25 1.4 18.9973 -69.7659 55.2977
126 24.25 11.25 1.4 19.2427 -69.0463 132.752
127 -7 11.5 1.4 12.8224 -63.6568 57.7053
128 -6.75 11.5 1.4 12.5816 -70.9109 -37.4044
129 -6.5 11.5 1.4 12.3412 -72.5033 127.82
130 -6.25 11.5 1.4 12.1011 -59.6528 -24.7062
131 -6 11.5 1.4 11.8615 -65.195 -124.061
132 -5.75 11.5 1.4 11.6223 -61.5007 -50.8984
133 -5.5 11.5 1.4 11.3836 -62.5636 -132.185
134 -5.25 11.5 1.4 11.1453 -63.9361 -98.9493
135 -5 11.5 1.4 10.9076 -69.2987 162.024
136 -4.75 11.5 1.4 10.6705 -66.4741 -106.885
137 -4.5 11.5 1.4 10.4339 -70.56 -0.0887863
138 -4.25 11.5 1.4 10.198 -65.75 -92.5935
139 -4 11.5 1.4 9.9628 -88.4872 141.616
140 -3.75 11.5 1.4 9.72832 -68.4128 -125.108
141 -3.5 11.5 1.4 9.49463 -62.0185 -164.98
142 -3.25 11.5 1.4 9.26179 -63.1817 136.64
143 -3 11.5 1.4 9.02987 -59.7283 83.3101
144 -2.75 11.5 1.4 8.79894 -64.3694 2.51741
145 -2.5 11.5 1.4 8.56908 -60.961 -46.3001
146 -2.25 11.5 1.4 8.34038 -56.5341 -106.431
147 -2 11.5 1.4 8.11293 -61.5737 171.237
148 -1.75 11.5 1.4 7.88685 -65.6617 44.524
149 -1.5 11.5 1.4 7.66226 -63.2779 -85.7745
150 -1.25 11.5 1.4 7.43929 -58.5714 120.276
151 -1 11.5 1.4 7.21809 -57.6859 52.7846
152 -0.75 11.5 1.4 6.99883 -52.9571 -38.3244
153 -0.5 11.5 1.4 6.78169 -53.2725 -154.165
154 -0.25 11.5 1.4 6.5669 -52.4017 95.5513
155 -1.77636e-15 11.5 1.4 6.35468 -59.8721 -16.1671
156 0.25 11.5 1.4 6.1453 -64.3693 20.3742
157 0.5 11.5 1.4 5.93906 -61.0918 -93.314
158 0.75 11.5 1.4 5.73631 -55.213 80.9776
159 1 11.5 1.4 5.53742 -51.5854 -57.359
160 1.25 11.5 1.4 5.34283 -49.0293 144.525
161 1.5 11.5 1.4 5.15302 -53.6854 -3.76658
162 1.75 11.5 1.4 4.96854 -55.801 -165.219
163 2 11.5 1.4 4.79 -55.8547 -39.9497
164 2.25 11.5 1.4 4.61811 -57.5045 114.16
165 2.5 11.5 1.4 4.45362 -50.3777 -93.6958
166 2.75 11.5 1.4 4.29738 -48.3314 5.12927
167 3 11.5 1.4 4.15033 -51.6084 24.3039
168 3.25 11.5 1.4 4.01348 -56.3365 132.68
169 3.5 11.5 1.4 3.88791 -47.175 141.726
170 3.75 11.5 1.4 3.77473 -48.9505 114.485
171 4 11.5 1.4 3.6751 -49.7572 33.2056
172 4.25 11.5 1.4 3.59015 -48.1978 -77.4571
173 4.5 11.5 1.4 3.52093 -52.5895 127.004
174 4.75 11.5 1.4 3.46839 -53.5777 -71.3293
175 5 11.5 1.4 3.43329 -51.2609 33.6243
176 5.25 11.5 1.4 3.41618 -49.9865 101.997
177 5.5 11.5 1.4 3.41732 -50.3685 74.631
178 5.75 11.5 1.4 3.43669 -57.952 -6.81653
179 6 11.5 1.4 3.47399 -52.0914 153.321
180 6.25 11.5 1.4 3.52865 -53.7402 -23.1921
181 6.5 11.5 1.4 3.59988 -50.1424 114.744
182 6.75 11.5 1.4 3.68673 -46.0522 -124.004
183 7 11.5 1.4 3.7881 -45.9572 -51.6716
184 7.25 11.5 1.4 3.90288 -47.667 5.86685
185 7.5 11.5 1.4 4.02992 -51.0941 -52.0468
186 7.75 11.5 1.4 4.1681 -49.772 -74.9539
187 8 11.5 1.4 4.31635 -46.8471 -139.243
188 8.25 11.5 1.4 4.47366 -48.1662 130.199
189 8.5 11.5 1.4 4.63912 -50.2285 21.2373
190 8.75 11.5 1.4 4.81188 -50.7099 -113.313
191 9 11.5 1.4 4.99119 -51.5895 101.601
192 9.25 11.5 1.4 5.17636 -51.7641 -94.0821
193 9.5 11.5 1.4 5.3668 -54.0227 32.7193
194 9.75 11.5 1.4 5.56195 -52.2971 163.457
195 10 11.5 1.4 5.76134 -55.043 6.29807
196 10.25 11.5 1.4 5.96455 -53.6348 -177.075
197 10.5 11.5 1.4 6.17119 -61.31 -36.512
198 10.75 11.5 1.4 6.38094 -59.3059 -58.0867
199 11 11.5 1.4 6.5935 -53.9844 9.76008
200 11.25 11.5 1.4 6.8086 -53.9607 134.094
201 11.5 11.5 1.4 7.02601 -57.3658 -112.143
202 11.75 11.5 1.4 7.24552 -55.7103 -21.6415
203 12 11.5 1.4 7.46695 -61.5751 73.9982
204 12.25 11.5 1.4 7.69013 -66.7595 150.392
205 12.5 11.5 1.4 7.91491 -68.7897 -42.2063
206 12.75 11.5 1.4 8.14117 -62.3503 106.38
207 13 11.5 1.4 8.36878 -69.0844 173.934
208 13.25 11.5 1.4 8.59763 -58.0642 -123.938
209 13.5 11.5 1.4 8.82763 -62.9281 -72.861
210 13.75 11.5 1.4 9.05868 -62.856 5.68021
211 14 11.5 1.4 9.29072 -59.7063 42.9157
212 14.25 11.5 1.4 9.52367 -69.0198 118.382
213 14.5 11.5 1.4 9.75746 -64.7831 121.837
214 14.75 11.5 1.4 9.99204 -74.6865 -94.1516
215 15 11.5 1.4 10.2273 -68.9556 -56.9999
216 15.25 11.5 1.4 10.4633 -68.4153 33.2613
217 15.5 11.5 1.4 10.7 -73.7926 91.5047
218 15.75 11.5 1.4 10.9372 -63.4927 81.9039
219 16 11.5 1.4 11.175 -71.8679 -146.658
220 16.25 11.5 1.4 11.4133 -63.3125 145.469
221 16.5 11.5 1.4 11.6521 -66.9787 -80.9528
222 16.75 11.5 1.4 11.8913 -65.6348 -125.964
223 17 11.5 1.4 12.131 -68.1896 -121.273
224 17.25 11.5 1.4 12.3711 -72.9989 12.8295
225 17.5 11.5 1.4 12.6116 -61.8852 -82.5288
226 17.75 11.5 1.4 12.8524 -65.628 43.1003
227 18 11.5 1.4 13.0936 -71.5218 -69.957
228 18.25 11.5 1.4 13.3351 -65.4191 34.5528
229 18.5 11.5 1.4 13.5769 -68.0631 -137.493
230 18.75 11.5 1.4 13.819 -76.7966 1.91992
231 19 11.5 1.4 14.0614 -64.5798 127.732
232 19.25 11.5 1.4 14.3041 -66.9526 -71.4051
233 19.5 11.5 1.4 14.5469 -77.6221 64.9823
234 19.75 11.5 1.4 14.7901 -67.8057 118.978
235 20 11.5 1.4 15.0334 -70.7355 -116.066
236 20.25 11.5 1.4 15.277 -65.6645 85.3497
237 20.5 11.5 1.4 15.5208 -69.0052 136.974
238 20.75 11.5 1.4 15.7648 -68.9361 -95.7682
239 21 11.5 1.4 16.0089 -67.932 26.6973
240 21.25 11.5 1.4 16.2533 -67.8428 96.9678
241 21.5 11.5 1.4 16.4978 -72.3407 -146.863
242 21.75 11.5 1.4 16.7424 -67.1631 -42.6799
243 22 11.5 1.4 16.9872 -67.2031 59.7026
244 22.25 11.5 1.4 17.2322 -71.8116 -173.09
245 22.5 11.5 1.4 17.4773 -70.0361 -94.801
246 22.75 11.5 1.4 17.7226 -67.2152 -26.7799
247 23 11.5 1.4 17.968 -70.161 79.6687
248 23.25 11.5 1.4 18.2135 -76.0387 -164.545
249 23.5 11.5 1.4 18.4591 -65.8055 -106.527
250 23.75 11.5 1.4 18.7048 -68.2379 -41.2149
251 24 11.5 1.4 18.9507 -77.0437 -127.689
252 24.25 11.5 1.4 19.1967 -73.3869 93.5278
253 -7 11.75 1.4 12.7581 -65.1882 -156.576
254 -6.75 11.75 1.4 12.5161 -62.4629 165.377
255 -6.5 11.75 1.4 12.2744 -80.9135 49.7559
256 -6.25 11.75 1.4 12.033 -62.2372 136.615
257 -6 11.75 1.4 11.792 -63.1184 -10.9683
258 -5.75 11.75 1.4 11.5513 -68.3833 103.287
259 -5.5 11.75 1.4 11.3111 -66.8174 4.80501
260 -5.25 11.75 1.4 11.0713 -65.8774 154.68
261 -5 11.75 1.4 10.832 -66.8258 -126.394
262 -4.75 11.75 1.4 10.5931 -61.2804 124.592
263 -4.5 11.75 1.4 10.3548 -67.2639 177.505
264 -4.25 11.75 1.4 10.1171 -59.8725 68.0195
265 -4 11.75 1.4 9.87991 -67.3914 57.5137
266 -3.75 11.75 1.4 9.64342 -71.3573 39.9844
267 -3.5 11.75 1.4 9.40762 -66.4353 -126.825
268 -3.25 11.75 1.4 9.17257 -69.9931 9.0174
269 -3 11.75 1.4 8.93834 -63.1111 53.7069
270 -2.75 11.75 1.4 8.70498 -60.5551 16.469
271 -2.5 11.75 1.4 8.47257 -56.5124 -78.9151
272 -2.25 11.75 1.4 8.24119 -58.0204 -161.861
273 -2 11.75 1.4 8.01093 -58.0266 128.272
274 -1.75 11.75 1.4 7.78189 -62.1227 25.5981
275 -1.5 11.75 1.4 7.55417 -61.0178 -123.953
276 -1.25 11.75 1.4 7.32791 -59.0415 105.786
277 -1 11.75 1.4 7.10324 -54.1783 12.7227
278 -0.75 11.75 1.4 6.88032 -54.0241 -77.6459
279 -0.5 11.75 1.4 6.65933 -62.2577 -174.214
280 -0.25 11.75 1.4 6.44045 -77.8055 -47.8316
281 -1.77636e-15 11.75 1.4 6.22392 -57.4459 101.956
282 0.25 11.75 1.4 6.00999 -50.9964 -3.8012
283 0.5 11.75 1.4 5.79894 -51.7601 -132.289
284 0.75 11.75 1.4 5.59111 -60.2911 19.8996
285 1 11.75 1.4 5.38686 -57.5623 87.2212
286 1.25 11.75 1.4 5.18663 -54.9681 -127.11
287 1.5 11.75 1.4 4.99088 -52.7699 107.688
288 1.75 11.75 1.4 4.80017 -52.2545 -52.2675
289 2 11.75 1.4 4.61513 -52.7446 104.747
290 2.25 11.75 1.4 4.43646 -50.9632 -9.04577
291 2.5 11.75 1.4 4.26497 -50.8311 103.697
292 2.75 11.75 1.4 4.10156 -56.511 -162.069
293 3 11.75 1.4 3.94722 -49.2079 -38.263
294 3.25 11.75 1.4 3.80307 -50.8747 8.51062
295 3.5 11.75 1.4 3.6703 -53.2706 51.3657
296 3.75 11.75 1.4 3.55019 -48.0324 52.516
297 4 11.75 1.4 3.44408 -48.9452 8.02748
298 4.25 11.75 1.4 3.35327 -47.1917 -118.888
299 4.5 11.75 1.4 3.27906 -57.2812 -163.625
300 4.75 11.75 1.4 3.22258 -50.2456 -14.1038
301 5 11.75 1.4 3.18477 -48.32 63.467
302 5.25 11.75 1.4 3.16632 -47.6622 129.13
303 5.5 11.75 1.4 3.16754 -47.0048 103.176
304 5.75 11.75 1.4 3.18844 -49.0558 -107.377
305 6 11.75 1.4 3.22861 -62.5651 101.76
306 6.25 11.75 1.4 3.28735 -48.9411 -65.9199
307 6.5 11.75 1.4 3.3637 -45.057 96.0345
308 6.75 11.75 1.4 3.45648 -45.6609 -148.366
309 7 11.75 1.4 3.56441 -46.7121 -65.0878
310 7.25 11.75 1.4 3.68616 -52.9254 -106.403
311 7.5 11.75 1.4 3.82042 -44.6266 -147.464
312 7.75 11.75 1.4 3.9659 -45.438 -177.914
313 8 11.75 1.4 4.12142 -52.1801 104.356
314 8.25 11.75 1.4 4.2859 -49.2879 -27.2702
315 8.5 11.75 1.4 4.45833 -48.4828 -142.249
316 8.75 11.75 1.4 4.63783 -47.5774 46.3024
317 9 11.75 1.4 4.82361 -50.1116 -139.157
318 9.25 11.75 1.4 5.01498 -61.2602 14.558
319 9.5 11.75 1.4 5.21132 -56.287 119.975
320 9.75 11.75 1.4 5.41208 -53.0591 -22.6267
321 10 11.75 1.4 5.61679 -60.7264 116.862
322 10.25 11.75 1.4 5.82504 -57.8911 138.757
323 10.5 11.75 1.4 6.03647 -52.6384 -84.8522
324 10.75 11.75 1.4 6.25074 -58.7787 41.5871
325 11 11.75 1.4 6.46757 -69.0397 -83.4459
326 11.25 11.75 1.4 6.68672 -63.485 10.6921
327 11.5 11.75 1.4 6.90797 -58.2791 -136.059
328 11.75 11.75 1.4 7.13112 -54.0936 -67.8617
329 12 11.75 1.4 7.35599 -58.6069 19.0404
330 12.25 11.75 1.4 7.58244 -63.0999 179.362
331 12.5 11.75 1.4 7.81032 -68.0473 -82.0387
332 12.75 11.75 1.4 8.03952 -67.0443 44.5963
333 13 11.75 1.4 8.26993 -57.5169 151.713
334 13.25 11.75 1.4 8.50144 -63.2801 -157.639
335 13.5 11.75 1.4 8.73397 -63.5094 -88.3617
336 13.75 11.75 1.4 8.96744 -62.1377 -33.4914
337 14 11.75 1.4 9.20178 -73.711 162.272
338 14.25 11.75 1.4 9.43693 -80.0343 63.7246
339 14.5 11.75 1.4 9.67282 -66.5503 -82.2727
340 14.75 11.75 1.4 9.9094 -65.534 -75.1034
341 15 11.75 1.4 10.1466 -61.9947 -7.45982
342 15.25 11.75 1.4 10.3844 -64.989 41.8596
343 15.5 11.75 1.4 10.6228 -61.206 46.3818
344 15.75 11.75 1.4 10.8617 -75.3432 -140.129
345 16 11.75 1.4 11.1011 -62.3504 123.858
346 16.25 11.75 1.4 11.341 -63.8999 -95.9405
347 16.5 11.75 1.4 11.5813 -77.0742 -115.518
348 16.75 11.75 1.4 11.8219 -73.1499 -47.4929
349 17 11.75 1.4 12.063 -64.261 30.6963
350 17.25 11.75 1.4 12.3044 -79.7322 -66.5985
351 17.5 11.75 1.4 12.5462 -62.6208 43.0643
352 17.75 11.75 1.4 12.7883 -69.8904 -136.705
353 18 11.75 1.4 13.0306 -63.7103 47.1238
354 18.25 11.75 1.4 13.2733 -63.6982 161.191
355 18.5 11.75 1.4 13.5162 -75.5828 -94.0794
356 18.75 11.75 1.4 13.7594 -66.9987 113.515
357 19 11.75 1.4 14.0028 -65.2979 -116.961
358 19.25 11.75 1.4 14.2464 -82.9645 -50.733
359 19.5 11.75 1.4 14.4903 -74.0015 64.9033
360 19.75 11.75 1.4 14.7344 -63.2537 -128.947
361 20 11.75 1.4 14.9786 -71.2065 37.9958
362 20.25 11.75 1.4 15.2231 -69.6326 108.73
363 20.5 11.75 1.4 15.4677 -66.5768 -155.265
364 20.75 11.75 1.4 15.7125 -70.6776 -68.4796
365 21 11.75 1.4 15.9575 -68.6353 68.4309
366 21.25 11.75 1.4 16.2026 -71.1531 140.472
367 21.5 11.75 1.4 16.4478 -67.0184 -107.509
368 21.75 11.75 1.4 16.6932 -69.6165 18.0426
369 22 11.75 1.4 16.9388 -72.9515 91.127
370 22.25 11.75 1.4 17.1844 -73.2884 175.607
371 22.5 11.75 1.4 17.4302 -69.7339 -84.1411
372 22.75 11.75 1.4 17.6761 -70.3315 29.5563
373 23 11.75 1.4 17.9221 -68.6294 83.5031
374 23.25 11.75 1.4 18.1683 -68.9075 161.869
375 23.5 11.75 1.4 18.4145 -69.9747 -76.8366
376 23.75 11.75 1.4 18.6608 -72.7775 -50.8554
377 24 11.75 1.4 18.9072 -67.9812 19.9916
378 24.25 11.75 1.4 19.1538 -80.7704 126.595
379 -7 12 1.4 12.6984 -63.3991 -111.536
380 -6.75 12 1.4 12.4552 -77.61 -1.45483
381 -6.5 12 1.4 12.2123 -79.2157 -119.172
382 -6.25 12 1.4 11.9697 -71.7955 -0.259959
383 -6 12 1.4 11.7274 -63.2816 89.9381
384 -5.75 12 1.4 11.4854 -64.2586 10.4456
385 -5.5 12 1.4 11.2437 -66.617 44.8618
386 -5.25 12 1.4 11.0025 -61.7431 -52.7082
387 -5 12 1.4 10.7616 -77.4217 -127.031
388 -4.75 12 1.4 10.5212 -59.5975 -108.412
389 -4.5 12 1.4 10.2812 -65.5613 72.521
390 -4.25 12 1.4 10.0417 -70.5712 -163.148
391 -4 12 1.4 9.8027 -62.979 -18.8622
392 -3.75 12 1.4 9.5643 -58.777 -76.263
393 -3.5 12 1.4 9.3265 -65.5734 -16.0134
394 -3.25 12 1.4 9.08935 -59.6381 -157.983
395 -3 12 1.4 8.85292 -65.9666 120.564
396 -2.75 12 1.4 8.61724 -60.1113 -52.3109
397 -2.5 12 1.4 8.3824 -62.1747 -111.658
398 -2.25 12 1.4 8.14846 -58.2551 165.657
399 -2 12 1.4 7.91551 -56.2658 81.7113
400 -1.75 12 1.4 7.68362 -61.5697 0.941146
401 -1.5 12 1.4 7.45291 -63.804 166.218
402 -1.25 12 1.4 7.22347 -57.2892 47.3545
403 -1 12 1.4 6.99545 -55.7906 -46.3408
404 -0.75 12 1.4 6.76898 -62.3946 -111.007
405 -0.5 12 1.4 6.54423 -62.7739 -79.5289
406 -0.25 12 1.4 6.32137 -56.0787 -178.41
407 -1.77636e-15 12 1.4 6.10061 -55.1023 48.9082
408 0.25 12 1.4 5.8822 -57.9214 -33.6304
409 0.5 12 1.4 5.6664 -61.6084 -67.8408
410 0.75 12 1.4 5.45351 -51.8764 -171.475
411 1 12 1.4 5.24391 -60.3697 83.8372
412 1.25 12 1.4 5.03799 -57.0043 -17.7173
413 1.5 12 1.4 4.83623 -56.6001 -152.678
414 1.75 12 1.4 4.63917 -52.3011 40.675
415 2 12 1.4 4.44744 -55.8767 -83.4157
416 2.25 12 1.4 4.26175 -48.8747 87.705
417 2.5 12 1.4 4.08292 -52.5338 -107.752
418 2.75 12 1.4 3.91191 -47.9296 60.4519
419 3 12 1.4 3.74978 -56.1705 149.119
420 3.25 12 1.4 3.59772 -50.3907 -71.5678
421 3.5 12 1.4 3.45708 -47.6787 -57.2259
422 3.75 12 1.4 3.32929 -50.2837 -38.9325
423 4 12 1.4 3.21589 -48.4863 -24.5579
424 4.25 12 1.4 3.11845 -46.7629 -141.617
425 4.5 12 1.4 3.0385 -52.1755 150.444
426 4.75 12 1.4 2.97746 -47.7761 -43.6681
427 5 12 1.4 2.93651 -46.2196 63.0296
428 5.25 12 1.4 2.91648 -44.81 130.064
429 5.5 12 1.4 2.91781 -44.9478 100.298
430 5.75 12 1.4 2.94048 -45.541 -82.4839
431 6 12 1.4 2.98399 -52.1609 -145.729
432 6.25 12 1.4 3.04745 -51.129 -67.3745
433 6.5 12 1.4 3.12966 -45.381 84.0705
434 6.75 12 1.4 3.22917 -48.8797 161.809
435 7 12 1.4 3.34444 -56.3146 163.645
436 7.25 12 1.4 3.47391 -44.7308 171.5
437 7.5 12 1.4 3.61606 -48.1265 167.841
438 7.75 12 1.4 3.76944 -47.7275 36.3455
439 8 12 1.4 3.93274 -45.65 -56.2664
440 8.25 12 1.4 4.10478 -51.469 -179.968
441 8.5 12 1.4 4.2845 -50.6107 -1.80815
442 8.75 12 1.4 4.47099 -53.6741 -140.316
443 9 12 1.4 4.66343 -57.6495 -12.1568
444 9.25 12 1.4 4.8611 -54.7983 142.856
445 9.5 12 1.4 5.06341 -53.6642 -82.1769
446 9.75 12 1.4 5.26981 -56.6637 33.9517
447 10 12 1.4 5.47984 -60.5212 79.5456
448 10.25 12 1.4 5.6931 -54.2807 -131.378
449 10.5 12 1.4 5.90925 -66.8131 79.928
450 10.75 12 1.4 6.12797 -57.2008 -45.2245
451 11 12 1.4 6.349 -55.7223 109.899
452 11.25 12 1.4 6.5721 -58.5919 -138.643
453 11.5 12 1.4 6.79708 -66.056 143.201
454 11.75 12 1.4 7.02375 -57.4166 -130.816
455 12 12 1.4 7.25196 -57.8158 -28.2516
456 12.25 12 1.4 7.48156 -64.6707 83.9513
457 12.5 12 1.4 7.71242 -60.167 -90.5743
458 12.75 12 1.4 7.94445 -59.7427 1.19751
459 13 12 1.4 8.17753 -61.2043 71.4609
460 13.25 12 1.4 8.41159 -62.952 137.701
461 13.5 12 1.4 8.64654 -66.3082 -34.4193
462 13.75 12 1.4 8.88231 -67.6252 72.2847
463 14 12 1.4 9.11883 -71.0009 108.998
464 14.25 12 1.4 9.35606 -61.9306 -158.166
465 14.5 12 1.4 9.59394 -62.3635 -138.668
466 14.75 12 1.4 9.83242 -64.7162 -81.7103
467 15 12 1.4 10.0715 -74.0095 -105.54
468 15.25 12 1.4 10.311 -67.8245 -0.340655
469 15.5 12 1.4 10.5511 -63.0248 -158.409
470 15.75 12 1.4 10.7916 -68.4196 132.516
471 16 12 1.4 11.0325 -64.6605 -99.1713
472 16.25 12 1.4 11.2738 -69.2249 156.063
473 16.5 12 1.4 11.5155 -66.5012 -71.001
474 16.75 12 1.4 11.7575 -65.547 35.781
475 17 12 1.4 11.9999 -70.4911 136.593
476 17.25 12 1.4 12.2425 -67.5363 66.2436
477 17.5 12 1.4 12.4855 -63.772 164.373
478 17.75 12 1.4 12.7287 -74.0515 -4.24573
479 18 12 1.4 12.9722 -65.4151 160.565
480 18.25 12 1.4 13.2159 -75.3341 -84.2522
481 18.5 12 1.4 13.4599 -68.7279 11.1656
482 18.75 12 1.4 13.704 -65.2006 -124.688
483 19 12 1.4 13.9484 -73.0269 -34.2607
484 19.25 12 1.4 14.193 -63.9404 6.63688
485 19.5 12 1.4 14.4378 -69.5594 -154.231
486 19.75 12 1.4 14.6827 -65.7322 -4.39041
487 20 12 1.4 14.9278 -67.0213 34.8481
488 20.25 12 1.4 15.1731 -73.5097 155.725
489 20.5 12 1.4 15.4185 -70.0459 -108.936
490 20.75 12 1.4 15.6641 -68.9413 17.2914
491 21 12 1.4 15.9098 -73.1503 69.3876
492 21.25 12 1.4 16.1556 -64.8042 -152.135
493 21.5 12 1.4 16.4016 -69.8113 -94.1108
494 21.75 12 1.4 16.6477 -74.5503 52.3417
495 22 12 1.4 16.8938 -67.6756 125.747
496 22.25 12 1.4 17.1402 -66.6555 -150.64
497 22.5 12 1.4 17.3866 -81.631 -35.0576
498 22.75 12 1.4 17.6331 -68.8233 43.3384
499 23 12 1.4 17.8797 -65.6074 98.2506
500 23.25 12 1.4 18.1264 -72.1946 124.299
501 23.5 12 1.4 18.3732 -73.1738 176.693
502 23.75 12 1.4 18.6201 -73.2417 4.69253
503 24 12 1.4 18.867 -70.9889 103.096
504 24.25 12 1.4 19.1141 -76.1958 111.985
505 -7 12.25 1.4 12.6434 -62.4875 19.6804
506 -6.75 12.25 1.4 12.3991 -62.6238 -106.974
507 -6.5 12.25 1.4 12.1551 -73.5498 -30.3723
508 -6.25 12.25 1.4 11.9113 -69.1154 -142.385
509 -6 12.25 1.4 11.6677 -64.6239 162.03
510 -5.75 12.25 1.4 11.4245 -62.4752 165.591
511 -5.5 12.25 1.4 11.1815 -74.9236 135.716
512 -5.25 12.25 1.4 10.9389 -64.1482 22.8326
513 -5 12.25 1.4 10.6966 -60.9112 -86.3116
514 -4.75 12.25 1.4 10.4547 -70.4436 83.3137
515 -4.5 12.25 1.4 10.2131 -58.7284 -171.305
516 -4.25 12.25 1.4 9.97199 -59.3868 68.2863
517 -4 12.25 1.4 9.7313 -69.8036 77.5768
518 -3.75 12.25 1.4 9.49111 -63.6876 -1.06756
519 -3.5 12.25 1.4 9.25142 -60.2632 -162.906
520 -3.25 12.25 1.4 9.0123 -65.2377 136.759
521 -3 12.25 1.4 8.77379 -58.8092 73.6506
522 -2.75 12.25 1.4 8.53594 -59.75 25.271
523 -2.5 12.25 1.4 8.29879 -65.0281 -136.689
524 -2.25 12.25 1.4 8.06243 -58.3309 101.911
525 -2 12.25 1.4 7.82691 -58.5435 21.9466
526 -1.75 12.25 1.4 7.59232 -63.4125 -77.3866
527 -1.5 12.25 1.4 7.35874 -59.3638 82.3107
528 -1.25 12.25 1.4 7.12628 -59.6204 -37.5036
529 -1 12.25 1.4 6.89505 -56.8553 -154.238
530 -0.75 12.25 1.4 6.66517 -80.9368 28.8251
531 -0.5 12.25 1.4 6.43679 -58.3923 -137.271
532 -0.25 12.25 1.4 6.21007 -55.7667 98.0537
533 -1.77636e-15 12.25 1.4 5.98521 -62.6515 -123.233
534 0.25 12.25 1.4 5.76243 -57.0037 22.8867
535 0.5 12.25 1.4 5.54196 -52.0334 -125.974
536 0.75 12.25 1.4 5.32411 -56.4706 -151.054
537 1 12.25 1.4 5.1092 -55.6124 128.141
538 1.25 12.25 1.4 4.89762 -54.4838 41.9744
539 1.5 12.25 1.4 4.68982 -55.2409 -73.6704
540 1.75 12.25 1.4 4.48634 -53.4759 -161.443
541 2 12.25 1.4 4.28777 -53.1016 65.6639
542 2.25 12.25 1.4 4.09485 -50.484 -129.725
543 2.5 12.25 1.4 3.9084 -56.7582 89.9409
544 2.75 12.25 1.4 3.72939 -54.0491 -130.919
545 3 12.25 1.4 3.55895 -48.5865 23.3752
546 3.25 12.25 1.4 3.39837 -48.4299 112.894
547 3.5 12.25 1.4 3.2491 -51.3061 -126.095
548 3.75 12.25 1.4 3.11279 -47.0962 -110.821
549 4 12.25 1.4 2.99119 -53.0207 -107.72
550 4.25 12.25 1.4 2.88618 -46.666 -157.78
551 4.5 12.25 1.4 2.79961 -58.2173 117.147
552 4.75 12.25 1.4 2.73324 -48.8282 -21.8894
553 5 12.25 1.4 2.68856 -45.3639 88.1325
554 5.25 12.25 1.4 2.66667 -43.9373 153.119
555 5.5 12.25 1.4 2.66813 -45.436 121.709
556 5.75 12.25 1.4 2.6929 -49.4255 -113.834
557 6 12.25 1.4 2.74034 -59.2134 165.175
558 6.25 12.25 1.4 2.80932 -45.5536 -66.715
559 6.5 12.25 1.4 2.89828 -45.1144 59.0104
560 6.75 12.25 1.4 3.00546 -49.3115 116.652
561 7 12.25 1.4 3.12899 -46.7407 77.2056
562 7.25 12.25 1.4 3.26701 -46.2395 85.9374
563 7.5 12.25 1.4 3.41777 -46.4884 -16.0161
564 7.75 12.25 1.4 3.57965 -46.4826 -71.4286
565 8 12.25 1.4 3.75123 -51.6582 108.602
566 8.25 12.25 1.4 3.93122 -47.6184 1.48941
567 8.5 12.25 1.4 4.11853 -51.7512 156.167
568 8.75 12.25 1.4 4.3122 -50.2036 -9.08588
569 9 12.25 1.4 4.51141 -58.4647 82.2807
570 9.25 12.25 1.4 4.71546 -52.9298 -159.747
571 9.5 12.25 1.4 4.92376 -57.7344 -33.0771
572 9.75 12.25 1.4 5.13577 -63.2799 9.36834
573 10 12.25 1.4 5.35107 -61.212 134.979
574 10.25 12.25 1.4 5.56927 -61.4154 109.577
575 10.5 12.25 1.4 5.79003 -55.6073 -86.9155
576 10.75 12.25 1.4 6.01309 -60.4948 138.638
577 11 12.25 1.4 6.23819 -57.666 -16.3525
578 11.25 12.25 1.4 6.46513 -54.3331 117.269
579 11.5 12.25 1.4 6.6937 -65.505 -165.647
580 11.75 12.25 1.4 6.92376 -56.3854 120.175
581 12 12.25 1.4 7.15515 -60.4794 -120.992
582 12.25 12.25 1.4 7.38776 -61.8356 21.175
583 12.5 12.25 1.4 7.62147 -61.4614 150.041
584 12.75 12.25 1.4 7.85618 -59.3007 -43.8795
585 13 12.25 1.4 8.0918 -59.7194 11.3988
586 13.25 12.25 1.4 8.32827 -82.4174 -156.467
587 13.5 12.25 1.4 8.5655 -70.4135 -91.8744
588 13.75 12.25 1.4 8.80344 -62.6766 -1.90816
589 14 12.25 1.4 9.04204 -63.0065 76.5678
590 14.25 12.25 1.4 9.28123 -69.8697 139.566
591 14.5 12.25 1.4 9.52098 -63.5631 -66.2442
592 14.75 12.25 1.4 9.76124 -74.5245 -7.05665
593 15 12.25 1.4 10.002 -61.9052 1.35799
594 15.25 12.25 1.4 10.2432 -65.1883 139.759
595 15.5 12.25 1.4 10.4848 -66.4732 45.8
596 15.75 12.25 1.4 10.7267 -61.6717 -142.761
597 16 12.25 1.4 10.9691 -83.7307 -155.642
598 16.25 12.25 1.4 11.2118 -64.4047 -33.95
599 16.5 12.25 1.4 11.4547 -65.0213 19.5109
600 16.75 12.25 1.4 11.698 -81.9789 70.735
601 17 12.25 1.4 11.9416 -77.9496 137.435
602 17.25 12.25 1.4 12.1854 -62.711 159.879
603 17.5 12.25 1.4 12.4295 -64.3452 -93.726
604 17.75 12.25 1.4 12.6738 -70.0555 178.038
605 18 12.25 1.4 12.9183 -68.4662 -122.621
606 18.25 12.25 1.4 13.163 -62.6422 -10.8243
607 18.5 12.25 1.4 13.408 -67.5874 158.043
608 18.75 12.25 1.4 13.6531 -76.7099 5.48212
609 19 12.25 1.4 13.8983 -66.0318 13.4658
610 19.25 12.25 1.4 14.1438 -65.8254 111.678
611 19.5 12.25 1.4 14.3894 -69.4441 -14.1627
612 19.75 12.25 1.4 14.6351 -70.2563 29.3807
613 20 12.25 1.4 14.881 -66.4422 96.6611
614 20.25 12.25 1.4 15.1271 -69.1029 -160.402
615 20.5 12.25 1.4 15.3732 -69.7869 -58.7154
616 20.75 12.25 1.4 15.6195 -68.3997 -11.0097
617 21 12.25 1.4 15.8659 -68.6651 -178.723
618 21.25 12.25 1.4 16.1124 -66.1638 -112.982
619 21.5 12.25 1.4 16.359 -68.3823 -71.1122
620 21.75 12.25 1.4 16.6057 -75.2326 46.3797
621 22 12.25 1.4 16.8525 -68.7074 175.52
622 22.25 12.25 1.4 17.0994 -67.8134 -137.817
623 22.5 12.25 1.4 17.3464 -65.6827 -76.0122
624 22.75 12.25 1.4 17.5935 -74.0383 -23.3682
625 23 12.25 1.4 17.8406 -77.0759 -148.059
626 23.25 12.25 1.4 18.0879 -67.2563 -151.845
627 23.5 12.25 1.4 18.3352 -66.5331 -115.549
628 23.75 12.25 1.4 18.5826 -73.2392 -87.7776
629 24 12.25 1.4 18.83 -75.3387 60.5831
630 24.25 12.25 1.4 19.0775 -70.7345 121.571
631 -7 12.5 1.4 12.5931 -77.6125 152.935
632 -6.75 12.5 1.4 12.3478 -62.7816 8.82496
633 -6.5 12.5 1.4 12.1027 -77.6962 -71.3506
634 -6.25 12.5 1.4 11.8578 -65.3176 -29.7456
635 -6 12.5 1.4 11.6132 -64.1829 -128.882
636 -5.75 12.5 1.4 11.3688 -64.6768 107.57
637 -5.5 12.5 1.4 11.1246 -66.9814 84.9263
638 -5.25 12.5 1.4 10.8807 -66.3353 5.80244
639 -5 12.5 1.4 10.6371 -59.6709 -11.3741
640 -4.75 12.5 1.4 10.3938 -56.5477 -126.611
641 -4.5 12.5 1.4 10.1508 -67.6271 36.3554
642 -4.25 12.5 1.4 9.90812 -62.3691 133.34
643 -4 12.5 1.4 9.66585 -57.8739 16.017
644 -3.75 12.5 1.4 9.42398 -66.2974 -108.36
645 -3.5 12.5 1.4 9.18255 -62.1615 -105.162
646 -3.25 12.5 1.4 8.94158 -64.3139 145.818
647 -3 12.5 1.4 8.70113 -60.849 -12.9031
648 -2.75 12.5 1.4 8.46123 -58.9868 -81.6202
649 -2.5 12.5 1.4 8.22194 -63.514 -179.537
650 -2.25 12.5 1.4 7.9833 -71.0587 9.20597
651 -2 12.5 1.4 7.74537 -56.5743 -84.5825
652 -1.75 12.5 1.4 7.50824 -57.8444 178.316
653 -1.5 12.5 1.4 7.27196 -65.6937 -47.3489
654 -1.25 12.5 1.4 7.03663 -56.2991 -138.978
655 -1 12.5 1.4 6.80235 -60.958 107.647
656 -0.75 12.5 1.4 6.56922 -70.1834 -132.677
657 -0.5 12.5 1.4 6.33739 -55.5292 114.653
658 -0.25 12.5 1.4 6.10699 -68.0943 -27.7352
659 -1.77636e-15 12.5 1.4 5.87818 -55.425 73.1547
660 0.25 12.5 1.4 5.65118 -56.4108 -90.8856
661 0.5 12.5 1.4 5.4262 -58.0396 -71.2822
662 0.75 12.5 1.4 5.2035 -60.4629 174.561
663 1 12.5 1.4 4.98339 -56.2401 127.374
664 1.25 12.5 1.4 4.76623 -54.1844 58.7516
665 1.5 12.5 1.4 4.55244 -58.1241 -46.0683
666 1.75 12.5 1.4 4.34252 -50.8544 -118.498
667 2 12.5 1.4 4.13706 -53.8119 122.594
668 2.25 12.5 1.4 3.93676 -49.2021 -14.7532
669 2.5 12.5 1.4 3.74244 -47.6265 -139.444
670 2.75 12.5 1.4 3.55508 -53.2037 36.1664
671 3 12.5 1.4 3.37586 -48.8449 -168.302
672 3.25 12.5 1.4 3.20612 -50.6305 16.0197
673 3.5 12.5 1.4 3.04745 -49.3518 83.3481
674 3.75 12.5 1.4 2.90168 -47.0246 161.722
675 4 12.5 1.4 2.77083 -49.152 156.139
676 4.25 12.5 1.4 2.65712 -43.2171 171.652
677 4.5 12.5 1.4 2.56283 -53.1062 66.68
678 4.75 12.5 1.4 2.49015 -46.599 -40.8385
679 5 12.5 1.4 2.44103 -45.1644 79.1501
680 5.25 12.5 1.4 2.4169 -43.875 160.388
681 5.5 12.5 1.4 2.41851 -44.9114 129.447
682 5.75 12.5 1.4 2.44581 -49.8701 -83.671
683 6 12.5 1.4 2.49795 -50.8745 102.433
684 6.25 12.5 1.4 2.57343 -44.7772 -69.9679
685 6.5 12.5 1.4 2.67027 -47.0791 19.7057
686 6.75 12.5 1.4 2.78623 -46.2266 15.5267
687 7 12.5 1.4 2.91905 -42.4702 15.3876
688 7.25 12.5 1.4 3.06654 -47.4066 -57.5565
689 7.5 12.5 1.4 3.22668 -44.8266 -120.462
690 7.75 12.5 1.4 3.39768 -44.3227 83.2027
691 8 12.5 1.4 3.57799 -49.9367 -39.0153
692 8.25 12.5 1.4 3.76627 -48.7603 109.357
693 8.5 12.5 1.4 3.96138 -56.3899 -128.808
694 8.75 12.5 1.4 4.16237 -50.4995 31.8551
695 9 12.5 1.4 4.36842 -55.1224 127.918
696 9.25 12.5 1.4 4.57885 -63.2254 -135.703
697 9.5 12.5 1.4 4.79309 -59.7119 -29.6621
698 9.75 12.5 1.4 5.01063 -62.7007 28.9555
699 10 12.5 1.4 5.23108 -62.8066 74.7498
700 10.25 12.5 1.4 5.45408 -62.1644 -153.175
701 10.5 12.5 1.4 5.67933 -58.4574 122.86
702 10.75 12.5 1.4 5.90657 -56.9262 -60.1836
703 11 12.5 1.4 6.13558 -65.3701 135.017
704 11.25 12.5 1.4 6.36617 -54.0272 7.40703
705 11.5 12.5 1.4 6.59817 -61.2367 108.448
706 11.75 12.5 1.4 6.83145 -62.117 25.1017
707 12 12.5 1.4 7.06587 -56.2258 141.957
708 12.25 12.5 1.4 7.30132 -71.0554 -54.1172
709 12.5 12.5 1.4 7.53771 -57.9206 90.8095
710 12.75 12.5 1.4 7.77495 -57.1838 -171.545
711 13 12.5 1.4 8.01296 -71.203 -89.3093
712 13.25 12.5 1.4 8.25169 -61.5387 111.598
713 13.5 12.5 1.4 8.49106 -61.9125 -138.225
714 13.75 12.5 1.4 8.73103 -66.5808 -97.7931
715 14 12.5 1.4 8.97155 -69.0369 62.4342
716 14.25 12.5 1.4 9.21257 -68.6285 170.983
717 14.5 12.5 1.4 9.45406 -67.299 168.698
718 14.75 12.5 1.4 9.69598 -62.3829 -59.0634
719 15 12.5 1.4 9.9383 -63.2323 113.786
720 15.25 12.5 1.4 10.181 -64.6837 14.1571
721 15.5 12.5 1.4 10.424 -59.9702 168.093
722 15.75 12.5 1.4 10.6674 -85.189 17.0142
723 16 12.5 1.4 10.911 -64.1776 -63.346
724 16.25 12.5 1.4 11.155 -65.578 -27.3892
725 16.5 12.5 1.4 11.3992 -68.2681 67.2812
726 16.75 12.5 1.4 11.6436 -72.099 -176.751
727 17 12.5 1.4 11.8883 -71.1544 147.042
728 17.25 12.5 1.4 12.1332 -61.0286 -113.019
729 17.5 12.5 1.4 12.3783 -67.7991 -26.1507
730 17.75 12.5 1.4 12.6236 -68.4216 -121.498
731 18 12.5 1.4 12.8691 -61.6565 -39.2431
732 18.25 12.5 1.4 13.1147 -65.4964 119.574
733 18.5 12.5 1.4 13.3605 -76.0093 110.796
734 18.75 12.5 1.4 13.6065 -69.0101 -116.089
735 19 12.5 1.4 13.8526 -62.3189 112.597
736 19.25 12.5 1.4 14.0988 -69.5139 -135.543
737 19.5 12.5 1.4 14.3452 -70.4977 -120.893
738 19.75 12.5 1.4 14.5917 -68.5117 73.8629
739 20 12.5 1.4 14.8383 -70.7987 171.937
740 20.25 12.5 1.4 15.085 -71.3023 -80.2418
741 20.5 12.5 1.4 15.3319 -66.4954 -30.8266
742 20.75 12.5 1.4 15.5788 -65.8902 96.9985
743 21 12.5 1.4 15.8258 -74.2899 118.896
744 21.25 12.5 1.4 16.0729 -84.0262 -84.713
745 21.5 12.5 1.4 16.3201 -66.6163 10.1344
746 21.75 12.5 1.4 16.5674 -65.2712 57.454
747 22 12.5 1.4 16.8148 -68.06 97.6673
748 22.25 12.5 1.4 17.0623 -78.9259 86.4624
749 22.5 12.5 1.4 17.3098 -71.3068 -26.5774
750 22.75 12.5 1.4 17.5574 -68.5719 0.491423
751 23 12.5 1.4 17.805 -71.2176 74.2469
752 23.25 12.5 1.4 18.0527 -71.774 -159.648
753 23.5 12.5 1.4 18.3005 -72.0514 -114.617
754 23.75 12.5 1.4 18.5484 -73.1521 -56.5807
755 24 12.5 1.4 18.7963 -73.8413 -2.9036
756 24.25 12.5 1.4 19.0442 -71.51 81.7468
757 -7 12.75 1.4 12.5475 -67.8041 77.98
758 -6.75 12.75 1.4 12.3014 -65.817 80.0533
759 -6.5 12.75 1.4 12.0553 -66.8222 -57.2105
760 -6.25 12.75 1.4 11.8095 -76.2557 62.8988
761 -6 12.75 1.4 11.5638 -71.4504 -14.1807
762 -5.75 12.75 1.4 11.3183 -64.2459 -166.731
763 -5.5 12.75 1.4 11.073 -58.5002 100.788
764 -5.25 12.75 1.4 10.828 -63.5959 39.8734
765 -5 12.75 1.4 10.5831 -64.6505 -128.397
766 -4.75 12.75 1.4 10.3385 -62.3375 -72.9829
767 -4.5 12.75 1.4 10.0942 -54.8599 170.706
768 -4.25 12.75 1.4 9.85018 -65.2732 57.1835
769 -4 12.75 1.4 9.60645 -78.5372 -174.132
770 -3.75 12.75 1.4 9.36305 -59.5027 -56.6614
771 -3.5 12.75 1.4 9.12 -59.4435 152.853
772 -3.25 12.75 1.4 8.87734 -61.4928 92.2625
773 -3 12.75 1.4 8.6351 -68.0643 -6.02002
774 -2.75 12.75 1.4 8.39332 -60.6946 -141.381
775 -2.5 12.75 1.4 8.15203 -62.7148 105.467
776 -2.25 12.75 1.4 7.91128 -61.6851 2.84045
777 -2 12.75 1.4 7.67112 -58.8292 -178.272
778 -1.75 12.75 1.4 7.43161 -60.389 85.0844
779 -1.5 12.75 1.4 7.19282 -75.2641 -96.6527
780 -1.25 12.75 1.4 6.95481 -60.2416 112.468
781 -1 12.75 1.4 6.71768 -57.4847 2.11115
782 -0.75 12.75 1.4 6.48151 -61.3082 112.461
783 -0.5 12.75 1.4 6.24642 -60.0668 -9.97749
784 -0.25 12.75 1.4 6.01253 -60.8017 92.2201
785 -1.77636e-15 12.75 1.4 5.78 -57.5239 -54.7639
786 0.25 12.75 1.4 5.54897 -61.1628 -9.56569
787 0.5 12.75 1.4 5.31967 -64.4401 -128.721
788 0.75 12.75 1.4 5.09232 -61.3109 124.892
789 1 12.75 1.4 4.86718 -62.8016 149.333
790 1.25 12.75 1.4 4.64459 -58.3301 31.8189
791 1.5 12.75 1.4 4.42493 -54.4628 -13.6785
792 1.75 12.75 1.4 4.20866 -49.7728 -87.9756
793 2 12.75 1.4 3.99632 -56.6914 155.886
794 2.25 12.75 1.4 3.78858 -52.5775 36.655
795 2.5 12.75 1.4 3.58624 -48.1789 -51.0407
796 2.75 12.75 1.4 3.39027 -51.6203 153.587
797 3 12.75 1.4 3.20183 -54.7649 -4.64033
798 3.25 12.75 1.4 3.02233 -45.944 154.691
799 3.5 12.75 1.4 2.85346 -47.772 -47.6243
800 3.75 12.75 1.4 2.69723 -50.7767 53.6897
801 4 12.75 1.4 2.55594 -42.5376 93.0698
802 4.25 12.75 1.4 2.4322 -44.7624 112.205
803 4.5 12.75 1.4 2.32881 -54.0398 55.0518
804 4.75 12.75 1.4 2.24859 -44.6025 -58.795
805 5 12.75 1.4 2.19407 -43.3012 80.8663
806 5.25 12.75 1.4 2.16719 -42.9246 158.033
807 5.5 12.75 1.4 2.16898 -44.1276 116.103
808 5.75 12.75 1.4 2.19938 -45.8955 -51.9175
809 6 12.75 1.4 2.25722 -51.6284 118.235
810 6.25 12.75 1.4 2.34048 -45.7207 -104.176
811 6.5 12.75 1.4 2.44655 -46.8815 -39.2082
812 6.75 12.75 1.4 2.57262 -43.6878 -41.8574
813 7 12.75 1.4 2.71591 -45.6378 -63.2354
814 7.25 12.75 1.4 2.87384 -42.7843 -171.856
815 7.5 12.75 1.4 3.04413 -48.3964 52.3855
816 7.75 12.75 1.4 3.22483 -53.912 -76.5595
817 8 12.75 1.4 3.41428 -49.3057 89.8214
818 8.25 12.75 1.4 3.6111 -53.9468 -166.356
819 8.5 12.75 1.4 3.81416 -56.9817 -96.3197
820 8.75 12.75 1.4 4.02251 -57.5188 123.804
821 9 12.75 1.4 4.23538 -53.1585 -178.318
822 9.25 12.75 1.4 4.4521 -68.9873 139.22
823 9.5 12.75 1.4 4.67215 -64.1192 33.6542
824 9.75 12.75 1.4 4.89507 -66.6853 -25.956
825 10 12.75 1.4 5.1205 -62.5349 48.5951
826 10.25 12.75 1.4 5.34811 -62.886 94.1807
827 10.5 12.75 1.4 5.57764 -66.0041 -129.772
828 10.75 12.75 1.4 5.80886 -62.9064 169.037
829 11 12.75 1.4 6.04158 -55.42 -33.9065
830 11.25 12.75 1.4 6.27562 -60.9988 -128.319
831 11.5 12.75 1.4 6.51085 -60.1057 -2.39234
832 11.75 12.75 1.4 6.74715 -60.2409 -114.96
833 12 12.75 1.4 6.98439 -57.333 -0.142549
834 12.25 12.75 1.4 7.2225 -63.7048 -128.45
835 12.5 12.75 1.4 7.46139 -60.5306 -22.2674
836 12.75 12.75 1.4 7.70098 -58.7604 123.509
837 13 12.75 1.4 7.94121 -65.4198 -110.442
838 13.25 12.75 1.4 8.18203 -68.5093 1.80928
839 13.5 12.75 1.4 8.42339 -60.1148 140.33
840 13.75 12.75 1.4 8.66523 -65.1819 -43.1192
841 14 12.75 1.4 8.90752 -64.6041 -38.5862
842 14.25 12.75 1.4 9.15023 -64.1738 97.2345
843 14.5 12.75 1.4 9.39332 -65.3026 -128.971
844 14.75 12.75 1.4 9.63677 -65.4448 94.6348
845 15 12.75 1.4 9.88054 -60.3593 -30.4305
846 15.25 12.75 1.4 10.1246 -59.7056 126.803
847 15.5 12.75 1.4 10.369 -74.1656 18.5564
848 15.75 12.75 1.4 10.6136 -66.0371 -119.785
849 16 12.75 1.4 10.8585 -63.9996 -36.4935
850 16.25 12.75 1.4 11.1036 -64.9357 46.4811
851 16.5 12.75 1.4 11.3489 -74.3858 127.398
852 16.75 12.75 1.4 11.5944 -65.8004 90.0254
853 17 12.75 1.4 11.8401 -61.7867 -147.603
854 17.25 12.75 1.4 12.0859 -61.1033 -21.8985
855 17.5 12.75 1.4 12.332 -106.088 162.697
856 17.75 12.75 1.4 12.5782 -63.6307 -41.6728
857 18 12.75 1.4 12.8245 -64.4235 67.5314
858 18.25 12.75 1.4 13.071 -70.7495 -21.9665
859 18.5 12.75 1.4 13.3176 -63.5521 -126.916
860 18.75 12.75 1.4 13.5644 -66.2009 68.3968
861 19 12.75 1.4 13.8112 -64.7019 -116.175
862 19.25 12.75 1.4 14.0582 -65.308 -104.27
863 19.5 12.75 1.4 14.3052 -68.551 -44.0977
864 19.75 12.75 1.4 14.5524 -87.7646 55.7772
865 20 12.75 1.4 14.7997 -70.5391 -137.467
866 20.25 12.75 1.4 15.047 -70.2696 -93.9191
867 20.5 12.75 1.4 15.2945 -67.2073 59.6483
868 20.75 12.75 1.4 15.542 -67.5621 123.786
869 21 12.75 1.4 15.7896 -65.0222 166.192
870 21.25 12.75 1.4 16.0373 -70.4777 -144.675
871 21.5 12.75 1.4 16.285 -77.6478 17.8856
872 21.75 12.75 1.4 16.5329 -85.3227 133.509
873 22 12.75 1.4 16.7807 -68.5203 144.214
874 22.25 12.75 1.4 17.0287 -71.5102 -146.745
875 22.5 12.75 1.4 17.2767 -69.4683 -90.5311
876 22.75 12.75 1.4 17.5247 -79.8868 17.6795
877 23 12.75 1.4 17.7728 -74.1365 72.0244
878 23.25 12.75 1.4 18.021 -75.5818 119.932
879 23.5 12.75 1.4 18.2692 -70.6912 -136.977
880 23.75 12.75 1.4 18.5175 -69.3696 -71.5013
881 24 12.75 1.4 18.7658 -70.4726 -18.5302
882 24.25 12.75 1.4 19.0142 -70.2396 10.0106
883 -7 13 1.4 12.5068 -69.9177 115.313
884 -6.75 13 1.4 12.2598 -71.6583 -129.364
885 -6.5 13 1.4 12.013 -63.9574 68.758
886 -6.25 13 1.4 11.7662 -63.7649 -58.4648
887 -6 13 1.4 11.5196 -64.6969 -99.0302
888 -5.75 13 1.4 11.2732 -66.5842 168.596
889 -5.5 13 1.4 11.0269 -63.6777 172.623
890 -5.25 13 1.4 10.7808 -60.6098 46.1449
891 -5 13 1.4 10.5348 -59.816 -24.8248
892 -4.75 13 1.4 10.2891 -61.9261 -176.426
893 -4.5 13 1.4 10.0436 -65.287 -156.777
894 -4.25 13 1.4 9.79828 -58.0359 91.941
895 -4 13 1.4 9.55323 -56.9127 -42.2342
896 -3.75 13 1.4 9.30843 -64.9331 -176.79
897 -3.5 13 1.4 9.06392 -77.4328 -133.553
898 -3.25 13 1.4 8.81972 -60.1969 38.8979
899 -3 13 1.4 8.57585 -62.274 -79.8254
900 -2.75 13 1.4 8.33235 -62.7231 119.009
901 -2.5 13 1.4 8.08924 -63.0686 24.0939
902 -2.25 13 1.4 7.84657 -58.9945 -96.0123
903 -2 13 1.4 7.60437 -71.6915 97.8325
904 -1.75 13 1.4 7.36269 -64.7529 -40.7411
905 -1.5 13 1.4 7.12158 -67.8286 149.925
906 -1.25 13 1.4 6.88111 -58.5334 -6.45534
907 -1 13 1.4 6.64135 -55.3502 -148.266
908 -0.75 13 1.4 6.40237 -58.6541 -40.7662
909 -0.5 13 1.4 6.16426 -60.5761 -165.24
910 -0.25 13 1.4 5.92713 -59.7373 -61.9081
911 -1.77636e-15 13 1.4 5.6911 -71.5293 176.4
912 0.25 13 1.4 5.45632 -69.6775 -159.658
913 0.5 13 1.4 5.22295 -65.2547 -131.623
914 0.75 13 1.4 4.99119 -58.7168 125.455
915 1 13 1.4 4.76128 -60.266 40.3489
916 1.25 13 1.4 4.53349 -60.2145 -12.2901
917 1.5 13 1.4 4.30817 -56.8064 -5.05784
918 1.75 13 1.4 4.08572 -55.0575 -79.5635
919 2 13 1.4 3.86663 -54.096 162.36
920 2.25 13 1.4 3.65153 -50.6978 89.8754
921 2.5 13 1.4 3.44114 -51.4695 3.90563
922 2.75 13 1.4 3.23639 -49.3825 -60.3571
923 3 13 1.4 3.03842 -48.9696 128.391
924 3.25 13 1.4 2.84864 -56.0526 -46.4991
925 3.5 13 1.4 2.66881 -50.3041 130.096
926 3.75 13 1.4 2.50106 -47.1412 -108.386
927 4 13 1.4 2.348 -44.8581 32.5342
928 4.25 13 1.4 2.21266 -45.7492 44.8774
929 4.5 13 1.4 2.09849 -47.527 -22.211
930 4.75 13 1.4 2.00909 -44.8669 -65.3717
931 5 13 1.4 1.94788 -42.1431 93.4937
932 5.25 13 1.4 1.91755 -43.3026 -174.53
933 5.5 13 1.4 1.91958 -46.8111 150.712
934 5.75 13 1.4 1.95386 -48.0341 -38.2022
935 6 13 1.4 2.01875 -48.2598 86.0176
936 6.25 13 1.4 2.11143 -44.5622 -138.969
937 6.5 13 1.4 2.22843 -45.1493 -122.185
938 6.75 13 1.4 2.36615 -44.2934 -143.319
939 7 13 1.4 2.5212 -45.4092 126.093
940 7.25 13 1.4 2.69058 -48.2673 36.0169
941 7.5 13 1.4 2.87176 -47.0961 -116.59
942 7.75 13 1.4 3.06264 -46.1859 65.2956
943 8 13 1.4 3.26153 -50.36 -168.742
944 8.25 13 1.4 3.46704 -53.8317 -81.9632
945 8.5 13 1.4 3.67806 -63.317 147.997
946 8.75 13 1.4 3.8937 -59.04 -129.78
947 9 13 1.4 4.11323 -57.1244 -121.454
948 9.25 13 1.4 4.33607 -60.4877 -106.223
949 9.5 13 1.4 4.56172 -70.3295 -176.427
950 9.75 13 1.4 4.78978 -60.0153 -41.9956
951 10 13 1.4 5.01994 -60.5678 11.7602
952 10.25 13 1.4 5.25191 -65.3261 84.4516
953 10.5 13 1.4 5.48547 -69.2356 84.0266
954 10.75 13 1.4 5.72041 -60.8577 -95.8137
955 11 13 1.4 5.95659 -59.8929 148.575
956 11.25 13 1.4 6.19384 -60.8496 55.9398
957 11.5 13 1.4 6.43207 -56.9843 -170.529
958 11.75 13 1.4 6.67115 -62.9293 109.418
959 12 13 1.4 6.91101 -55.7395 -105.85
960 12.25 13 1.4 7.15156 -61.9521 35.0153
961 12.5 13 1.4 7.39274 -65.0626 -144.747
962 12.75 13 1.4 7.63449 -61.4411 15.5254
963 13 13 1.4 7.87675 -60.0759 -173.105
964 13.25 13 1.4 8.11948 -63.1362 -64.2027
965 13.5 13 1.4 8.36264 -67.913 33.2487
966 13.75 13 1.4 8.60619 -58.8018 -160.614
967 14 13 1.4 8.8501 -64.62 -34.498
968 14.25 13 1.4 9.09434 -73.52 -44.9289
969 14.5 13 1.4 9.33889 -63.5371 115.622
970 14.75 13 1.4 9.58372 -56.9904 -94.0375
971 15 13 1.4 9.8288 -64.8722 92.4086
972 15.25 13 1.4 10.0741 -65.9219 -29.7146
973 15.5 13 1.4 10.3197 -62.4923 153.475
974 15.75 13 1.4 10.5655 -62.3816 -119.766
975 16 13 1.4 10.8114 -71.6473 40.1279
976 16.25 13 1.4 11.0575 -71.3832 94.9593
977 16.5 13 1.4 11.3039 -64.3695 82.8394
978 16.75 13 1.4 11.5503 -59.5758 168.637
979 17 13 1.4 11.7969 -63.893 -54.9332
980 17.25 13 1.4 12.0437 -72.9432 82.1755
981 17.5 13 1.4 12.2906 -76.0533 -101.045
982 17.75 13 1.4 12.5376 -63.3085 56.1848
983 18 13 1.4 12.7847 -65.8963 87.6547
984 18.25 13 1.4 13.0319 -65.1113 -176.396
985 18.5 13 1.4 13.2793 -66.4737 10.32
986 18.75 13 1.4 13.5267 -80.9032 -107.624
987 19 13 1.4 13.7742 -71.6739 -146.302
988 19.25 13 1.4 14.0219 -64.1952 -61.2564
989 19.5 13 1.4 14.2696 -66.3937 37.6212
990 19.75 13 1.4 14.5173 -72.8087 101.694
991 20 13 1.4 14.7652 -86.2837 113.049
992 20.25 13 1.4 15.0131 -69.7819 38.5425
993 20.5 13 1.4 15.2611 -70.5528 32.3422
994 20.75 13 1.4 15.5092 -70.9162 112.478
995 21 13 1.4 15.7573 -71.4846 176.715
996 21.25 13 1.4 16.0055 -76.9127 -63.6018
997 21.5 13 1.4 16.2537 -67.1541 -39.6864
998 21.75 13 1.4 16.502 -76.0428 23.6263
999 22 13 1.4 16.7503 -87.7461 -31.2585
1000 22.25 13 1.4 16.9987 -74.5607 -86.4326
1001 22.5 13 1.4 17.2471 -67.3648 -59.1777
1002 22.75 13 1.4 17.4956 -72.0124 -21.8103
1003 23 13 1.4 17.7441 -67.7366 44.6281
1004 23.25 13 1.4 17.9927 -68.7776 121.05
1005 23.5 13 1.4 18.2413 -73.5308 -176.001
1006 23.75 13 1.4 18.4899 -71.8918 -122.932
1007 24 13 1.4 18.7386 -71.401 -70.9683
1008 24.25 13 1.4 18.9873 -72.6837 -40.3336
1009 -7 13.25 1.4 12.471 -66.2533 -139.885
1010 -6.75 13.25 1.4 12.2233 -62.0751 70.7585
1011 -6.5 13.25 1.4 11.9757 -70.0417 7.92498
1012 -6.25 13.25 1.4 11.7281 -62.1137 0.972267
1013 -6 13.25 1.4 11.4807 -68.054 -95.8344
1014 -5.75 13.25 1.4 11.2334 -64.3445 -152.628
1015 -5.5 13.25 1.4 10.9863 -62.2719 94.8926
1016 -5.25 13.25 1.4 10.7392 -64.6701 73.5659
1017 -5 13.25 1.4 10.4923 -62.5483 -6.98211
1018 -4.75 13.25 1.4 10.2455 -58.206 -130.219
1019 -4.5 13.25 1.4 9.99894 -58.3537 102.363
1020 -4.25 13.25 1.4 9.75252 -63.1154 -1.63313
1021 -4 13.25 1.4 9.50628 -71.1252 93.048
1022 -3.75 13.25 1.4 9.26025 -59.5675 -142.563
1023 -3.5 13.25 1.4 9.01443 -56.8862 89.8712
1024 -3.25 13.25 1.4 8.76885 -61.101 -61.3186
1025 -3 13.25 1.4 8.52353 -64.3585 143.073
1026 -2.75 13.25 1.4 8.27849 -63.3408 78.5349
1027 -2.5 13.25 1.4 8.03375 -67.653 -48.439
1028 -2.25 13.25 1.4 7.78935 -60.8868 149.047
1029 -2 13.25 1.4 7.54531 -61.6052 18.4106
1030 -1.75 13.25 1.4 7.30168 -63.3683 -159.239
1031 -1.5 13.25 1.4 7.05849 -57.5962 56.2575
1032 -1.25 13.25 1.4 6.81579 -61.1612 -135.762
1033 -1 13.25 1.4 6.57364 -58.162 38.1721
1034 -0.75 13.25 1.4 6.33211 -60.1881 166.025
1035 -0.5 13.25 1.4 6.09125 -64.4149 2.23213
1036 -0.25 13.25 1.4 5.85117 -59.2165 137.395
1037 -1.77636e-15 13.25 1.4 5.61194 -67.796 119.115
1038 0.25 13.25 1.4 5.3737 -67.9178 20.8883
1039 0.5 13.25 1.4 5.13658 -72.7956 -47.9901
1040 0.75 13.25 1.4 4.90074 -59.7008 15.153
1041 1 13.25 1.4 4.66637 -57.4409 -26.4751
1042 1.25 13.25 1.4 4.43371 -63.2483 -22.5519
1043 1.5 13.25 1.4 4.20305 -65.0524 -168.99
1044 1.75 13.25 1.4 3.97472 -60.0154 -171.595
1045 2 13.25 1.4 3.74915 -59.6775 145.549
1046 2.25 13.25 1.4 3.52689 -49.6502 115.751
1047 2.5 13.25 1.4 3.30858 -53.0285 53.7704
1048 2.75 13.25 1.4 3.09508 -49.4601 -22.0535
1049 3 13.25 1.4 2.88743 -47.6897 -134.575
1050 3.25 13.25 1.4 2.68702 -48.3095 97.5342
1051 3.5 13.25 1.4 2.49556 -47.0706 -62.3915
1052 3.75 13.25 1.4 2.3153 -50.4165 105.971
1053 4 13.25 1.4 2.14904 -48.035 -171.771
1054 4.25 13.25 1.4 2.00029 -48.179 -49.305
1055 4.5 13.25 1.4 1.87322 -43.1163 -68.6953
1056 4.75 13.25 1.4 1.77249 -44.5176 -73.7826
1057 5 13.25 1.4 1.70279 -42.355 92.1552
1058 5.25 13.25 1.4 1.66802 -40.9926 -156.06
1059 5.5 13.25 1.4 1.67035 -46.2031 170.482
1060 5.75 13.25 1.4 1.70963 -46.0561 -41.5591
1061 6 13.25 1.4 1.78343 -44.0874 70.078
1062 6.25 13.25 1.4 1.8877 -43.0939 169.701
1063 6.5 13.25 1.4 2.01772 -41.6161 152.746
1064 6.75 13.25 1.4 2.16886 -42.1234 103.686
1065 7 13.25 1.4 2.33704 -43.1666 0.378409
1066 7.25 13.25 1.4 2.51883 -44.5722 -161.118
1067 7.5 13.25 1.4 2.71151 -47.8927 10.3607
1068 7.75 13.25 1.4 2.91292 -46.8585 121.255
1069 8 13.25 1.4 3.12136 -50.3581 -123.559
1070 8.25 13.25 1.4 3.33551 -52.7062 -39.5922
1071 8.5 13.25 1.4 3.55435 -57.2684 24.4159
1072 8.75 13.25 1.4 3.77706 -60.412 25.6689
1073 9 13.25 1.4 4.003 -60.0726 -120.536
1074 9.25 13.25 1.4 4.23164 -58.3592 -67.8242
1075 9.5 13.25 1.4 4.46257 -57.9796 -127.516
1076 9.75 13.25 1.4 4.69546 -54.1225 -108.547
1077 10 13.25 1.4 4.93002 -66.5866 -110.904
1078 10.25 13.25 1.4 5.16603 -64.5024 -128.938
1079 10.5 13.25 1.4 5.4033 -64.9705 -87.7707
1080 10.75 13.25 1.4 5.64167 -74.1831 9.83506
1081 11 13.25 1.4 5.881 -61.4081 -30.6419
1082 11.25 13.25 1.4 6.12119 -63.2707 169.33
1083 11.5 13.25 1.4 6.36214 -58.1529 57.07
1084 11.75 13.25 1.4 6.60375 -63.6308 -125.944
1085 12 13.25 1.4 6.84597 -59.7665 106.615
1086 12.25 13.25 1.4 7.08873 -62.2537 -52.8126
1087 12.5 13.25 1.4 7.33198 -59.479 58.9099
1088 12.75 13.25 1.4 7.57566 -64.0728 -77.6717
1089 13 13.25 1.4 7.81975 -59.4593 43.0694
1090 13.25 13.25 1.4 8.06419 -63.7284 -88.83
1091 13.5 13.25 1.4 8.30897 -67.9244 -33.268
1092 13.75 13.25 1.4 8.55405 -65.2154 55.4933
1093 14 13.25 1.4 8.79941 -60.9583 -128.845
1094 14.25 13.25 1.4 9.04502 -59.0943 2.73357
1095 14.5 13.25 1.4 9.29086 -74.9761 -128.351
1096 14.75 13.25 1.4 9.53692 -68.6009 96.723
1097 15 13.25 1.4 9.78318 -56.1328 -61.2205
1098 15.25 13.25 1.4 10.0296 -60.6141 58.1462
1099 15.5 13.25 1.4 10.2762 -65.3932 -163.033
1100 15.75 13.25 1.4 10.523 -92.2677 -30.8134
1101 16 13.25 1.4 10.7699 -69.2537 -75.4024
1102 16.25 13.25 1.4 11.017 -64.898 -34.8608
1103 16.5 13.25 1.4 11.2642 -62.1761 145.838
1104 16.75 13.25 1.4 11.5115 -60.2487 -112.055
1105 17 13.25 1.4 11.759 -73.8858 -100.428
1106 17.25 13.25 1.4 12.0065 -66.9271 -108.591
1107 17.5 13.25 1.4 12.2541 -74.8576 -31.7081
1108 17.75 13.25 1.4 12.5019 -70.8564 132.752
1109 18 13.25 1.4 12.7497 -62.0183 178.709
1110 18.25 13.25 1.4 12.9976 -69.319 -90.2809
1111 18.5 13.25 1.4 13.2456 -74.7823 -136.509
1112 18.75 13.25 1.4 13.4936 -71.7931 138.63
1113 19 13.25 1.4 13.7417 -68.5108 -76.9561
1114 19.25 13.25 1.4 13.9899 -71.4321 86.3662
1115 19.5 13.25 1.4 14.2382 -67.7434 80.0188
1116 19.75 13.25 1.4 14.4865 -65.046 144.283
1117 20 13.25 1.4 14.7349 -77.9708 -161.441
1118 20.25 13.25 1.4 14.9833 -76.3947 -68.4356
1119 20.5 13.25 1.4 15.2318 -70.6584 30.6125
1120 20.75 13.25 1.4 15.4803 -77.981 126.952
1121 21 13.25 1.4 15.7289 -76.745 -120.802
1122 21.25 13.25 1.4 15.9775 -70.8171 -51.3426
1123 21.5 13.25 1.4 16.2262 -66.9165 2.13719
1124 21.75 13.25 1.4 16.4749 -69.5362 -32.2165
1125 22 13.25 1.4 16.7236 -70.9456 87.1121
1126 22.25 13.25 1.4 16.9724 -74.619 -123.666
1127 22.5 13.25 1.4 17.2212 -69.7294 -132.031
1128 22.75 13.25 1.4 17.47 -69.3496 -59.7519
1129 23 13.25 1.4 17.7189 -82.1443 5.98723
1130 23.25 13.25 1.4 17.9678 -74.7422 99.6295
1131 23.5 13.25 1.4 18.2168 -71.1631 173.528
1132 23.75 13.25 1.4 18.4657 -67.608 -156.629
1133 24 13.25 1.4 18.7147 -67.2796 -121.906
1134 24.25 13.25 1.4 18.9637 -77.7007 -112.129
1135 -7 13.5 1.4 12.4401 -88.2301 149.459
1136 -6.75 13.5 1.4 12.1918 -63.744 162.93
1137 -6.5 13.5 1.4 11.9435 -63.659 52.6625
1138 -6.25 13.5 1.4 11.6953 -65.9548 -5.12603
1139 -6 13.5 1.4 11.4472 -63.987 -63.6339
1140 -5.75 13.5 1.4 11.1991 -65.2643 -177.618
1141 -5.5 13.5 1.4 10.9512 -62.7015 133.914
1142 -5.25 13.5 1.4 10.7033 -63.0609 20.6471
1143 -5 13.5 1.4 10.4556 -67.1935 -94.4843
1144 -4.75 13.5 1.4 10.2079 -67.3314 -137.003
1145 -4.5 13.5 1.4 9.96038 -61.7088 126.507
1146 -4.25 13.5 1.4 9.71298 -61.7211 8.1233
1147 -4 13.5 1.4 9.46571 -56.8539 -117.761
1148 -3.75 13.5 1.4 9.2186 -58.9932 84.3633
1149 -3.5 13.5 1.4 8.97164 -64.4002 -43.185
1150 -3.25 13.5 1.4 8.72485 -75.5526 141.031
1151 -3 13.5 1.4 8.47826 -65.0003 152.415
1152 -2.75 13.5 1.4 8.23187 -61.6855 -19.6862
1153 -2.5 13.5 1.4 7.9857 -60.471 -167.908
1154 -2.25 13.5 1.4 7.73978 -58.7916 32.5692
1155 -2 13.5 1.4 7.49413 -62.0274 -143.936
1156 -1.75 13.5 1.4 7.24878 -61.4169 86.2556
1157 -1.5 13.5 1.4 7.00375 -60.4599 -94.6093
1158 -1.25 13.5 1.4 6.75909 -58.6402 47.3365
1159 -1 13.5 1.4 6.51484 -64.593 -116.34
1160 -0.75 13.5 1.4 6.27103 -56.882 10.7303
1161 -0.5 13.5 1.4 6.02774 -62.0137 -165.966
1162 -0.25 13.5 1.4 5.78502 -61.5789 -107.901
1163 -1.77636e-15 13.5 1.4 5.54294 -65.2772 -84.0355
1164 0.25 13.5 1.4 5.3016 -69.8086 -46.068
1165 0.5 13.5 1.4 5.0611 -62.6088 -76.5291
1166 0.75 13.5 1.4 4.82157 -64.9751 -169.521
1167 1 13.5 1.4 4.58316 -55.8282 -179.602
1168 1.25 13.5 1.4 4.34604 -55.6433 -164.038
1169 1.5 13.5 1.4 4.11046 -54.5766 176.073
1170 1.75 13.5 1.4 3.87668 -56.6511 158.957
1171 2 13.5 1.4 3.64506 -56.9074 166.487
1172 2.25 13.5 1.4 3.41602 -56.6343 127.976
1173 2.5 13.5 1.4 3.19014 -54.7333 110.123
1174 2.75 13.5 1.4 2.96813 -47.9994 -22.6818
1175 3 13.5 1.4 2.75092 -49.1744 -109.08
1176 3.25 13.5 1.4 2.53975 -47.8144 164.599
1177 3.5 13.5 1.4 2.33626 -46.145 29.7736
1178 3.75 13.5 1.4 2.14264 -45.1834 -111.753
1179 4 13.5 1.4 1.9618 -42.6051 74.4396
1180 4.25 13.5 1.4 1.79763 -43.9464 179.007
1181 4.5 13.5 1.4 1.65506 -40.5396 -115.568
1182 4.75 13.5 1.4 1.54013 -43.3091 -122.927
1183 5 13.5 1.4 1.45938 -40.9269 98.6023
1184 5.25 13.5 1.4 1.41865 -41.5362 -139.554
1185 5.5 13.5 1.4 1.42139 -47.5339 -161.47
1186 5.75 13.5 1.4 1.46736 -43.3762 -41.8457
1187 6 13.5 1.4 1.55271 -41.1453 49.3219
1188 6.25 13.5 1.4 1.67143 -40.7012 98.3451
1189 6.5 13.5 1.4 1.817 -40.463 61.1887
1190 6.75 13.5 1.4 1.98349 -44.2008 -42.6204
1191 7 13.5 1.4 2.16611 -46.4444 154.823
1192 7.25 13.5 1.4 2.3611 -49.655 -57.2016
1193 7.5 13.5 1.4 2.56566 -50.7126 73.6193
1194 7.75 13.5 1.4 2.77766 -49.544 149.635
1195 8 13.5 1.4 2.99552 -50.1706 -100.417
1196 8.25 13.5 1.4 3.21806 -51.9895 -13.8746
1197 8.5 13.5 1.4 3.44437 -52.2487 20.5558
1198 8.75 13.5 1.4 3.67376 -59.0156 45.1688
1199 9 13.5 1.4 3.90567 -56.9012 47.8522
1200 9.25 13.5 1.4 4.13969 -56.0339 59.6023
1201 9.5 13.5 1.4 4.37548 -60.2501 83.8801
1202 9.75 13.5 1.4 4.61277 -81.0277 74.6753
1203 10 13.5 1.4 4.85133 -62.3644 165.413
1204 10.25 13.5 1.4 5.09099 -57.6971 167.039
1205 10.5 13.5 1.4 5.3316 -75.6778 88.8805
1206 10.75 13.5 1.4 5.57304 -68.9193 130.979
1207 11 13.5 1.4 5.8152 -62.3718 124.7
1208 11.25 13.5 1.4 6.05799 -70.4265 -49.9672
1209 11.5 13.5 1.4 6.30135 -60.3761 -135.444
1210 11.75 13.5 1.4 6.54522 -61.5559 94.0122
1211 12 13.5 1.4 6.78952 -65.502 -29.5146
1212 12.25 13.5 1.4 7.03423 -58.154 144.386
1213 12.5 13.5 1.4 7.2793 -91.8032 -168.151
1214 12.75 13.5 1.4 7.52469 -62.94 129.883
1215 13 13.5 1.4 7.77038 -62.3969 -66.3133
1216 13.25 13.5 1.4 8.01633 -57.2125 103.857
1217 13.5 13.5 1.4 8.26252 -67.3796 -86.1414
1218 13.75 13.5 1.4 8.50894 -64.9517 55.9509
1219 14 13.5 1.4 8.75556 -65.7422 105.951
1220 14.25 13.5 1.4 9.00237 -61.1662 -132.472
1221 14.5 13.5 1.4 9.24935 -58.0523 50.6612
1222 14.75 13.5 1.4 9.49648 -61.9412 -156.575
1223 15 13.5 1.4 9.74377 -65.0028 -21.3043
1224 15.25 13.5 1.4 9.99118 -73.6192 -33.1795
1225 15.5 13.5 1.4 10.2387 -64.7552 68.3598
1226 15.75 13.5 1.4 10.4864 -62.2682 -177.432
1227 16 13.5 1.4 10.7342 -59.0596 -46.2142
1228 16.25 13.5 1.4 10.982 -61.4638 63.3775
1229 16.5 13.5 1.4 11.23 -66.9977 -154.205
1230 16.75 13.5 1.4 11.478 -78.1841 -18.9762
1231 17 13.5 1.4 11.7262 -69.3295 -164.747
1232 17.25 13.5 1.4 11.9744 -66.484 -30.5284
1233 17.5 13.5 1.4 12.2227 -64.5447 58.6259
1234 17.75 13.5 1.4 12.471 -64.635 136.285
1235 18 13.5 1.4 12.7194 -66.8962 -102.507
1236 18.25 13.5 1.4 12.9679 -69.6515 -75.9835
1237 18.5 13.5 1.4 13.2165 -68.3 58.4371
1238 18.75 13.5 1.4 13.4651 -71.7051 -36.9868
1239 19 13.5 1.4 13.7137 -74.4381 -10.5514
1240 19.25 13.5 1.4 13.9624 -66.544 22.3222
1241 19.5 13.5 1.4 14.2111 -67.0696 164.54
1242 19.75 13.5 1.4 14.4599 -71.6381 -111.774
1243 20 13.5 1.4 14.7087 -63.9109 -124.352
1244 20.25 13.5 1.4 14.9576 -64.0798 -28.6866
1245 20.5 13.5 1.4 15.2065 -71.3757 26.4098
1246 20.75 13.5 1.4 15.4554 -77.1311 67.8092
1247 21 13.5 1.4 15.7044 -76.2644 171.329
1248 21.25 13.5 1.4 15.9534 -77.1596 97.1394
1249 21.5 13.5 1.4 16.2024 -72.2335 11.9723
1250 21.75 13.5 1.4 16.4515 -66.498 67.9879
1251 22 13.5 1.4 16.7006 -71.0981 128.708
1252 22.25 13.5 1.4 16.9497 -67.1844 149.221
1253 22.5 13.5 1.4 17.1988 -65.8798 -131.307
1254 22.75 13.5 1.4 17.448 -68.2541 -83.0879
1255 23 13.5 1.4 17.6972 -68.2824 -37.3398
1256 23.25 13.5 1.4 17.9464 -68.2765 -6.21998
1257 23.5 13.5 1.4 18.1956 -72.5116 35.3381
1258 23.75 13.5 1.4 18.4449 -81.4674 80.8325
1259 24 13.5 1.4 18.6941 -74.9556 11.0682
1260 24.25 13.5 1.4 18.9434 -76.0445 69.1649
1261 -7 13.75 1.4 12.4142 -70.3912 -159.198
1262 -6.75 13.75 1.4 12.1653 -64.3757 113.238
1263 -6.5 13.75 1.4 11.9165 -64.1311 78.552
1264 -6.25 13.75 1.4 11.6677 -63.0121 -8.60369
1265 -6 13.75 1.4 11.419 -66.2327 -95.5099
1266 -5.75 13.75 1.4 11.1703 -61.4556 -168.442
1267 -5.5 13.75 1.4 10.9217 -64.6967 95.2733
1268 -5.25 13.75 1.4 10.6731 -66.4348 -18.4663
1269 -5 13.75 1.4 10.4247 -62.2313 -97.7021
1270 -4.75 13.75 1.4 10.1763 -59.8025 125.2
1271 -4.5 13.75 1.4 9.92796 -63.2748 4.44658
1272 -4.25 13.75 1.4 9.67973 -64.751 -91.6109
1273 -4 13.75 1.4 9.4316 -72.4827 128.671
1274 -3.75 13.75 1.4 9.18356 -74.5698 108.308
1275 -3.5 13.75 1.4 8.93564 -61.0264 -28.3535
1276 -3.25 13.75 1.4 8.68783 -62.6367 178.328
1277 -3 13.75 1.4 8.44015 -57.3755 9.48199
1278 -2.75 13.75 1.4 8.19261 -59.2794 -159.085
1279 -2.5 13.75 1.4 7.94523 -62.2178 43.0869
1280 -2.25 13.75 1.4 7.69802 -61.5597 -107.404
1281 -2 13.75 1.4 7.45099 -61.9135 112.636
1282 -1.75 13.75 1.4 7.20417 -70.0232 -50.4516
1283 -1.5 13.75 1.4 6.95757 -58.0113 91.5051
1284 -1.25 13.75 1.4 6.71123 -65.097 -109.755
1285 -1 13.75 1.4 6.46517 -59.8733 85.1918
1286 -0.75 13.75 1.4 6.21942 -63.7793 -159.253
1287 -0.5 13.75 1.4 5.97402 -65.191 -67.582
1288 -0.25 13.75 1.4 5.72902 -69.6576 54.0366
1289 -1.77636e-15 13.75 1.4 5.48448 -60.7715 123.681
1290 0.25 13.75 1.4 5.24045 -65.1578 81.0988
1291 0.5 13.75 1.4 4.997 -63.4306 160.499
1292 0.75 13.75 1.4 4.75424 -58.4262 145.794
1293 1 13.75 1.4 4.51227 -62.5663 141.891
1294 1.25 13.75 1.4 4.27123 -61.8378 75.5351
1295 1.5 13.75 1.4 4.03127 -69.4385 98.8133
1296 1.75 13.75 1.4 3.79262 -63.4959 -20.6854
1297 2 13.75 1.4 3.55552 -59.8948 -19.0547
1298 2.25 13.75 1.4 3.32032 -67.8003 -171.865
1299 2.5 13.75 1.4 3.08744 -86.9088 -143.004
1300 2.75 13.75 1.4 2.85746 -57.0658 -0.249863
1301 3 13.75 1.4 2.63113 -50.4627 -79.4769
1302 3.25 13.75 1.4 2.40949 -48.5332 -168.486
1303 3.5 13.75 1.4 2.19395 -46.6289 93.6364
1304 3.75 13.75 1.4 1.9865 -46.0395 -21.0038
1305 4 13.75 1.4 1.78996 -47.1097 -160.128
1306 4.25 13.75 1.4 1.60834 -44.2642 30.1829
1307 4.5 13.75 1.4 1.44725 -41.7977 173.046
1308 4.75 13.75 1.4 1.31427 -40.5416 173.976
1309 5 13.75 1.4 1.21864 -39.1006 86.8868
1310 5.25 13.75 1.4 1.16956 -39.2861 -119.648
1311 5.5 13.75 1.4 1.17288 -47.1948 24.0502
1312 5.75 13.75 1.4 1.22818 -40.3617 -49.8267
1313 6 13.75 1.4 1.32898 -38.0811 13.5825
1314 6.25 13.75 1.4 1.46594 -39.8215 7.11058
1315 6.5 13.75 1.4 1.62996 -41.8982 -83.444
1316 6.75 13.75 1.4 1.81371 -43.5562 126.579
1317 7 13.75 1.4 2.01179 -50.1274 -79.9012
1318 7.25 13.75 1.4 2.22038 -53.263 -11.565
1319 7.5 13.75 1.4 2.43678 -51.4243 85.7322
1320 7.75 13.75 1.4 2.65907 -50.5627 166.492
1321 8 13.75 1.4 2.8859 -50.7028 -112.514
1322 8.25 13.75 1.4 3.11628 -53.6232 -25.3025
1323 8.5 13.75 1.4 3.34948 -59.9879 62.3769
1324 8.75 13.75 1.4 3.58494 -61.9096 86.848
1325 9 13.75 1.4 3.82224 -61.0238 -163.937
1326 9.25 13.75 1.4 4.06108 -59.9278 -14.0048
1327 9.5 13.75 1.4 4.30118 -59.7224 78.1034
1328 9.75 13.75 1.4 4.54234 -61.4006 55.0611
1329 10 13.75 1.4 4.78442 -59.7903 44.7153
1330 10.25 13.75 1.4 5.02727 -75.6015 -103.163
1331 10.5 13.75 1.4 5.27079 -64.1985 -1.03565
1332 10.75 13.75 1.4 5.51489 -61.9353 32.9925
1333 11 13.75 1.4 5.7595 -79.0386 -71.9556
1334 11.25 13.75 1.4 6.00455 -67.3688 -172.751
1335 11.5 13.75 1.4 6.24999 -61.5584 2.74641
1336 11.75 13.75 1.4 6.49578 -57.1471 -49.1239
1337 12 13.75 1.4 6.74188 -69.5197 -177.851
1338 12.25 13.75 1.4 6.98825 -60.3299 -4.72103
1339 12.5 13.75 1.4 7.23488 -63.7944 -148.255
1340 12.75 13.75 1.4 7.48173 -73.9998 -35.2153
1341 13 13.75 1.4 7.72878 -60.6604 172.379
1342 13.25 13.75 1.4 7.97601 -64.7045 -56.3491
1343 13.5 13.75 1.4 8.22342 -57.7191 139.458
1344 13.75 13.75 1.4 8.47097 -60.4144 -72.677
1345 14 13.75 1.4 8.71867 -59.68 118.01
1346 14.25 13.75 1.4 8.96649 -69.5399 -162.513
1347 14.5 13.75 1.4 9.21443 -61.5617 -133.319
1348 14.75 13.75 1.4 9.46248 -62.8973 75.1451
1349 15 13.75 1.4 9.71063 -57.5727 -169.73
1350 15.25 13.75 1.4 9.95887 -59.6353 -17.2299
1351 15.5 13.75 1.4 10.2072 -60.2741 100.198
1352 15.75 13.75 1.4 10.4556 -61.2413 -129.337
1353 16 13.75 1.4 10.7041 -68.3872 13.9757
1354 16.25 13.75 1.4 10.9526 -73.2267 -91.7788
1355 16.5 13.75 1.4 11.2012 -64.2275 38.9942
1356 16.75 13.75 1.4 11.4499 -68.4657 164.597
1357 17 13.75 1.4 11.6987 -63.0414 -90.9578
1358 17.25 13.75 1.4 11.9474 -65.2016 -6.94723
1359 17.5 13.75 1.4 12.1963 -64.8056 81.1756
1360 17.75 13.75 1.4 12.4452 -65.7078 173.552
1361 18 13.75 1.4 12.6941 -63.7698 -112.537
1362 18.25 13.75 1.4 12.943 -75.4079 -51.5792
1363 18.5 13.75 1.4 13.192 -71.6468 -52.6265
1364 18.75 13.75 1.4 13.4411 -78.8346 -129.626
1365 19 13.75 1.4 13.6902 -73.2156 -10.6965
1366 19.25 13.75 1.4 13.9393 -71.5256 106.767
1367 19.5 13.75 1.4 14.1884 -76.7409 85.8462
1368 19.75 13.75 1.4 14.4376 -64.3014 -143.205
1369 20 13.75 1.4 14.6868 -73.073 -48.3355
1370 20.25 13.75 1.4 14.936 -70.4358 -49.3159
1371 20.5 13.75 1.4 15.1853 -63.3315 54.9957
1372 20.75 13.75 1.4 15.4345 -71.2097 99.4965
1373 21 13.75 1.4 15.6838 -71.235 169.722
1374 21.25 13.75 1.4 15.9332 -73.3374 -143.324
1375 21.5 13.75 1.4 16.1825 -73.5724 -20.1591
1376 21.75 13.75 1.4 16.4319 -74.3026 -27.8078
1377 22 13.75 1.4 16.6812 -73.678 40.498
1378 22.25 13.75 1.4 16.9306 -74.2545 -142.023
1379 22.5 13.75 1.4 17.1801 -71.4567 -116.337
1380 22.75 13.75 1.4 17.4295 -68.7089 -71.5697
1381 23 13.75 1.4 17.6789 -65.7751 -32.0293
1382 23.25 13.75 1.4 17.9284 -67.1852 1.54026
1383 23.5 13.75 1.4 18.1779 -68.9267 51.031
1384 23.75 13.75 1.4 18.4274 -75.0112 157.514
1385 24 13.75 1.4 18.6769 -67.4767 161.02
1386 24.25 13.75 1.4 18.9264 -65.7994 -179.587
1387 -7 14 1.4 12.3932 -65.6281 134.165
1388 -6.75 14 1.4 12.1439 -64.561 152.982
1389 -6.5 14 1.4 11.8946 -69.115 90.5784
1390 -6.25 14 1.4 11.6454 -66.0939 6.11739
1391 -6 14 1.4 11.3962 -62.327 -120.633
1392 -5.75 14 1.4 11.147 -62.573 167.499
1393 -5.5 14 1.4 10.8979 -62.4641 57.6485
1394 -5.25 14 1.4 10.6488 -65.4417 -16.0619
1395 -5 14 1.4 10.3997 -60.4684 -177.582
1396 -4.75 14 1.4 10.1507 -63.8806 106.779
1397 -4.5 14 1.4 9.90175 -58.0123 5.10978
1398 -4.25 14 1.4 9.65285 -59.4584 -139.815
1399 -4 14 1.4 9.404 -62.3647 96.9838
1400 -3.75 14 1.4 9.15522 -60.511 -37.6827
1401 -3.5 14 1.4 8.90651 -56.4301 -178.575
1402 -3.25 14 1.4 8.65787 -57.9687 5.42787
1403 -3 14 1.4 8.40931 -60.5509 -128.358
1404 -2.75 14 1.4 8.16083 -62.5079 37.2383
1405 -2.5 14 1.4 7.91246 -67.5716 -79.4741
1406 -2.25 14 1.4 7.66419 -68.1399 154.147
1407 -2 14 1.4 7.41603 -62.9464 -30.1836
1408 -1.75 14 1.4 7.16801 -64.111 149.1
1409 -1.5 14 1.4 6.92012 -64.9091 -75.8558
1410 -1.25 14 1.4 6.6724 -61.4799 104.133
1411 -1 14 1.4 6.42485 -59.61 -119.49
1412 -0.75 14 1.4 6.17749 -62.6409 -16.5651
1413 -0.5 14 1.4 5.93036 -103.206 -42.6119
1414 -0.25 14 1.4 5.68348 -67.1046 -159.61
1415 -1.77636e-15 14 1.4 5.43689 -68.7865 -54.7062
1416 0.25 14 1.4 5.19062 -62.7927 145.28
1417 0.5 14 1.4 4.94473 -66.4503 -90.0637
1418 0.75 14 1.4 4.69927 -65.4219 -10.5642
1419 1 14 1.4 4.45431 -60.7197 -31.2674
1420 1.25 14 1.4 4.20995 -57.7767 -30.063
1421 1.5 14 1.4 3.96629 -61.7867 -53.4006
1422 1.75 14 1.4 3.72347 -59.6079 -28.7864
1423 2 14 1.4 3.48167 -54.724 -78.6047
1424 2.25 14 1.4 3.24111 -54.7143 -106.546
1425 2.5 14 1.4 3.0021 -54.6841 171.307
1426 2.75 14 1.4 2.76502 -66.0732 88.3571
1427 3 14 1.4 2.53044 -57.1886 -169.489
1428 3.25 14 1.4 2.29911 -54.3257 175.145
1429 3.5 14 1.4 2.07212 -48.5147 80.8751
1430 3.75 14 1.4 1.85107 -48.4762 25.4028
1431 4 14 1.4 1.63837 -46.566 -77.9889
1432 4.25 14 1.4 1.43772 -42.6155 166.404
1433 4.5 14 1.4 1.25491 -43.1587 -22.4912
1434 4.75 14 1.4 1.0989 -39.8558 91.6566
1435 5 14 1.4 0.982532 -37.8557 68.4116
1436 5.25 14 1.4 0.92095 -38.0375 -105.997
1437 5.5 14 1.4 0.925164 -37.2905 89.5256
1438 5.75 14 1.4 0.994338 -37.3375 -79.4574
1439 6 14 1.4 1.11646 -35.9422 -45.0939
1440 6.25 14 1.4 1.27643 -39.6229 -115.795
1441 6.5 14 1.4 1.46186 -43.5545 100.862
1442 6.75 14 1.4 1.66428 -46.01 -136.773
1443 7 14 1.4 1.87819 -52.4507 -38.0648
1444 7.25 14 1.4 2.10009 -56.6188 7.39455
1445 7.5 14 1.4 2.3277 -54.6797 72.2654
1446 7.75 14 1.4 2.55948 -52.9381 127.682
1447 8 14 1.4 2.79441 -55.1332 -82.985
1448 8.25 14 1.4 3.03175 -58.329 10.5481
1449 8.5 14 1.4 3.27098 -55.6613 98.3173
1450 8.75 14 1.4 3.5117 -53.5949 125.927
1451 9 14 1.4 3.75364 -54.4824 177.987
1452 9.25 14 1.4 3.99658 -60.2993 -146.728
1453 9.5 14 1.4 4.24033 -61.6809 -127.377
1454 9.75 14 1.4 4.48477 -70.1631 132.062
1455 10 14 1.4 4.72979 -61.8016 104.601
1456 10.25 14 1.4 4.97531 -65.927 75.3168
1457 10.5 14 1.4 5.22126 -61.1111 -21.4208
1458 10.75 14 1.4 5.46757 -73.1112 12.1644
1459 11 14 1.4 5.7142 -67.1689 134.592
1460 11.25 14 1.4 5.96111 -63.5987 -86.0026
1461 11.5 14 1.4 6.20827 -63.1372 -91.4608
1462 11.75 14 1.4 6.45565 -64.2404 123.307
1463 12 14 1.4 6.70322 -66.8357 -33.0551
1464 12.25 14 1.4 6.95097 -59.546 -164.873
1465 12.5 14 1.4 7.19887 -65.0204 28.8277
1466 12.75 14 1.4 7.44691 -65.9115 -94.6026
1467 13 14 1.4 7.69508 -65.9538 45.3143
1468 13.25 14 1.4 7.94337 -59.2914 165.778
1469 13.5 14 1.4 8.19176 -61.3706 -38.4995
1470 13.75 14 1.4 8.44024 -57.3582 146.718
1471 14 14 1.4 8.68881 -60.6856 -47.8021
1472 14.25 14 1.4 8.93746 -56.4056 126.876
1473 14.5 14 1.4 9.18618 -61.1598 -81.4426
1474 14.75 14 1.4 9.43498 -64.9755 56.6902
1475 15 14 1.4 9.68383 -75.2056 -127.029
1476 15.25 14 1.4 9.93274 -66.0413 -127.888
1477 15.5 14 1.4 10.1817 -70.3047 -38.6549
1478 15.75 14 1.4 10.4307 -61.3609 69.0047
1479 16 14 1.4 10.6798 -62.0625 -145.438
1480 16.25 14 1.4 10.9289 -61.5124 -41.6025
1481 16.5 14 1.4 11.178 -64.5365 84.9581
1482 16.75 14 1.4 11.4272 -64.2346 -172.755
1483 17 14 1.4 11.6764 -63.7104 -93.8735
1484 17.25 14 1.4 11.9257 -64.6988 18.1561
1485 17.5 14 1.4 12.1749 -65.7566 100.675
1486 17.75 14 1.4 12.4243 -65.2472 -149.467
1487 18 14 1.4 12.6736 -73.3631 -95.367
1488 18.25 14 1.4 12.923 -67.9198 -24.6699
1489 18.5 14 1.4 13.1723 -89.1663 -150.652
1490 18.75 14 1.4 13.4217 -76.3332 -30.7707
1491 19 14 1.4 13.6712 -85.3625 157.839
1492 19.25 14 1.4 13.9206 -76.5022 -70.0954
1493 19.5 14 1.4 14.1701 -68.0387 -161.931
1494 19.75 14 1.4 14.4196 -72.2285 -128.606
1495 20 14 1.4 14.6691 -68.1814 -71.0332
1496 20.25 14 1.4 14.9186 -68.0182 22.4579
1497 20.5 14 1.4 15.1681 -69.7209 60.5428
1498 20.75 14 1.4 15.4177 -63.6327 112.023
1499 21 14 1.4 15.6673 -65.1362 175.284
1500 21.25 14 1.4 15.9168 -69.8376 -126.607
1501 21.5 14 1.4 16.1664 -68.1832 -100.759
1502 21.75 14 1.4 16.416 -66.9026 -26.1195
1503 22 14 1.4 16.6657 -73.4147 -28.0355
1504 22.25 14 1.4 16.9153 -71.3725 68.4929
1505 22.5 14 1.4 17.1649 -75.0069 104.402
1506 22.75 14 1.4 17.4146 -85.0621 151.53
1507 23 14 1.4 17.6642 -76.4588 178.878
1508 23.25 14 1.4 17.9139 -72.9857 136.064
1509 23.5 14 1.4 18.1636 -75.9194 -42.9939
1510 23.75 14 1.4 18.4133 -81.5904 13.8341
1511 24 14 1.4 18.663 -75.5918 -137.242
1512 24.25 14 1.4 18.9127 -75.4827 166.963
1513 -7 14.25 1.4 12.3773 -58.9135 -130.296
1514 -6.75 14.25 1.4 12.1277 -58.961 111.891
1515 -6.5 14.25 1.4 11.878 -76.3804 -58.985
1516 -6.25 14.25 1.4 11.6284 -65.6357 -89.3839
1517 -6 14.25 1.4 11.3789 -62.0048 -88.7185
1518 -5.75 14.25 1.4 11.1293 -66.5019 114.33
1519 -5.5 14.25 1.4 10.8797 -62.5269 47.6684
1520 -5.25 14.25 1.4 10.6302 -57.6998 -93.8296
1521 -5 14.25 1.4 10.3807 -63.7359 122.11
1522 -4.75 14.25 1.4 10.1313 -64.8985 29.1703
1523 -4.5 14.25 1.4 9.8818 -62.9404 -88.8562
1524 -4.25 14.25 1.4 9.63238 -61.6432 -172.124
1525 -4 14.25 1.4 9.383 -64.7365 12.8954
1526 -3.75 14.25 1.4 9.13364 -60.0573 -142.649
1527 -3.5 14.25 1.4 8.88432 -65.0697 69.3778
1528 -3.25 14.25 1.4 8.63504 -69.9843 120.019
1529 -3 14.25 1.4 8.3858 -70.3835 65.5398
1530 -2.75 14.25 1.4 8.13661 -60.6759 77.8117
1531 -2.5 14.25 1.4 7.88748 -80.8412 -172.643
1532 -2.25 14.25 1.4 7.63839 -57.1885 45.6375
1533 -2 14.25 1.4 7.38937 -67.8444 -174.049
1534 -1.75 14.25 1.4 7.14042 -65.3217 -37.9831
1535 -1.5 14.25 1.4 6.89154 -66.3677 170.988
1536 -1.25 14.25 1.4 6.64275 -58.1092 -81.7643
1537 -1 14.25 1.4 6.39406 -71.0031 -0.559963
1538 -0.75 14.25 1.4 6.14546 -65.731 173.09
1539 -0.5 14.25 1.4 5.89699 -74.6658 -125.4
1540 -0.25 14.25 1.4 5.64865 -64.1276 -95.7553
1541 -1.77636e-15 14.25 1.4 5.40047 -66.0141 -130.75
1542 0.25 14.25 1.4 5.15246 -63.5323 -10.2115
1543 0.5 14.25 1.4 4.90465 -62.7201 -19.1772
1544 0.75 14.25 1.4 4.65708 -58.5046 -19.6022
1545 1 14.25 1.4 4.40978 -66.3519 -19.8981
1546 1.25 14.25 1.4 4.16281 -60.3674 19.1617
1547 1.5 14.25 1.4 3.91622 -60.55 29.2226
1548 1.75 14.25 1.4 3.67009 -56.7446 32.6904
1549 2 14.25 1.4 3.42452 -59.9769 -23.457
1550 2.25 14.25 1.4 3.17964 -69.5984 112.27
1551 2.5 14.25 1.4 2.93562 -64.5692 165.172
1552 2.75 14.25 1.4 2.6927 -57.6267 85.4197
1553 3 14.25 1.4 2.45121 -58.7204 51.0695
1554 3.25 14.25 1.4 2.21161 -60.7507 90.0811
1555 3.5 14.25 1.4 1.97458 -54.8992 35.3144
1556 3.75 14.25 1.4 1.7412 -53.0544 -32.3459
1557 4 14.25 1.4 1.51312 -57.2667 -22.3175
1558 4.25 14.25 1.4 1.29318 -45.3028 -109.356
1559 4.5 14.25 1.4 1.08632 -41.3059 147.733
1560 4.75 14.25 1.4 0.901598 -39.352 -44.0361
1561 5 14.25 1.4 0.755419 -36.183 19.679
1562 5.25 14.25 1.4 0.673378 -58.5312 -34.2838
1563 5.5 14.25 1.4 0.679129 -34.6003 106.927
1564 5.75 14.25 1.4 0.770711 -33.9585 -127.917
1565 6 14.25 1.4 0.922917 -36.4517 -142.416
1566 6.25 14.25 1.4 1.11111 -41.2627 58.769
1567 6.5 14.25 1.4 1.31998 -45.2248 -175.391
1568 6.75 14.25 1.4 1.54114 -47.5798 -133.746
1569 7 14.25 1.4 1.77 -55.0268 -81.326
1570 7.25 14.25 1.4 2.00391 -55.301 -66.8099
1571 7.5 14.25 1.4 2.24131 -58.8314 23.6526
1572 7.75 14.25 1.4 2.48118 -65.7751 -78.1302
1573 8 14.25 1.4 2.72287 -56.0905 -51.4027
1574 8.25 14.25 1.4 2.96594 -58.9705 14.0051
1575 8.5 14.25 1.4 3.21007 -66.1308 23.3787
1576 8.75 14.25 1.4 3.45505 -62.3247 -111.847
1577 9 14.25 1.4 3.70069 -57.9148 -143.355
1578 9.25 14.25 1.4 3.94689 -56.5099 -91.7125
1579 9.5 14.25 1.4 4.19353 -56.8422 -97.0293
1580 9.75 14.25 1.4 4.44055 -56.7996 -90.5584
1581 10 14.25 1.4 4.68788 -57.0834 -104.767
1582 10.25 14.25 1.4 4.93549 -57.7877 -146.758
1583 10.5 14.25 1.4 5.18332 -90.5182 -157.468
1584 10.75 14.25 1.4 5.43135 -68.6337 142.445
1585 11 14.25 1.4 5.67956 -64.4839 -155.518
1586 11.25 14.25 1.4 5.92791 -65.3614 -125.336
1587 11.5 14.25 1.4 6.1764 -81.9619 21.4523
1588 11.75 14.25 1.4 6.42501 -72.5357 143.027
1589 12 14.25 1.4 6.67372 -60.9929 126.673
1590 12.25 14.25 1.4 6.92252 -74.7196 64.9871
1591 12.5 14.25 1.4 7.1714 -64.0687 -156.051
1592 12.75 14.25 1.4 7.42037 -63.7403 55.5001
1593 13 14.25 1.4 7.66939 -62.1431 -36.0273
1594 13.25 14.25 1.4 7.91848 -76.0427 72.9899
1595 13.5 14.25 1.4 8.16763 -69.89 -158.637
1596 13.75 14.25 1.4 8.41682 -59.3638 -12.4473
1597 14 14.25 1.4 8.66607 -59.2695 -172.113
1598 14.25 14.25 1.4 8.91535 -61.3235 -27.5443
1599 14.5 14.25 1.4 9.16468 -63.1427 119.145
1600 14.75 14.25 1.4 9.41404 -57.0343 -89.7736
1601 15 14.25 1.4 9.66343 -57.8688 50.9678
1602 15.25 14.25 1.4 9.91285 -58.3782 -162.736
1603 15.5 14.25 1.4 10.1623 -60.6028 -33.1054
1604 15.75 14.25 1.4 10.4118 -59.637 87.1315
1605 16 14.25 1.4 10.6613 -58.5276 -166.902
1606 16.25 14.25 1.4 10.9108 -59.7571 -34.0664
1607 16.5 14.25 1.4 11.1604 -60.2782 91.2045
1608 16.75 14.25 1.4 11.4099 -62.7479 -155.646
1609 17 14.25 1.4 11.6595 -66.7564 -50.1819
1610 17.25 14.25 1.4 11.9091 -72.2007 32.0334
1611 17.5 14.25 1.4 12.1587 -77.7637 94.3694
1612 17.75 14.25 1.4 12.4084 -75.4906 -132.325
1613 18 14.25 1.4 12.658 -71.6987 -48.9962
1614 18.25 14.25 1.4 12.9077 -86.8014 27.6027
1615 18.5 14.25 1.4 13.1573 -72.6316 5.86381
1616 18.75 14.25 1.4 13.407 -80.0453 -161.348
1617 19 14.25 1.4 13.6567 -86.026 88.9907
1618 19.25 14.25 1.4 13.9064 -71.6165 158.574
1619 19.5 14.25 1.4 14.1562 -74.4984 -151.06
1620 19.75 14.25 1.4 14.4059 -71.2618 -120.44
1621 20 14.25 1.4 14.6556 -86.2887 -11.3495
1622 20.25 14.25 1.4 14.9054 -68.9054 -10.7351
1623 20.5 14.25 1.4 15.1551 -72.5023 72.7499
1624 20.75 14.25 1.4 15.4049 -79.4513 139.2
1625 21 14.25 1.4 15.6547 -70.4293 157.078
1626 21.25 14.25 1.4 15.9044 -69.3301 -138.558
1627 21.5 14.25 1.4 16.1542 -68.6213 -49.3175
1628 21.75 14.25 1.4 16.404 -70.7879 -31.2482
1629 22 14.25 1.4 16.6538 -68.0364 14.6002
1630 22.25 14.25 1.4 16.9036 -67.6272 64.8019
1631 22.5 14.25 1.4 17.1534 -65.8308 123.782
1632 22.75 14.25 1.4 17.4032 -72.427 137.505
1633 23 14.25 1.4 17.6531 -67.6707 175.178
1634 23.25 14.25 1.4 17.9029 -66.7313 -136.686
1635 23.5 14.25 1.4 18.1527 -66.4171 -98.8796
1636 23.75 14.25 1.4 18.4026 -66.5851 -56.5473
1637 24 14.25 1.4 18.6524 -66.3842 -11.7795
1638 24.25 14.25 1.4 18.9022 -87.5896 -6.66911
