#Rx
# X(m), Y(m), Z(m), Distance(m), Power (dBm) Phase (deg)
1 -7 11.25 1.4 12.8912 -61.0016 68.1522
2 -6.75 11.25 1.4 12.6517 -60.9785 -7.07839
3 -6.5 11.25 1.4 12.4127 -55.8669 13.1537
4 -6.25 11.25 1.4 12.174 -58.1985 -16.0716
5 -6 11.25 1.4 11.9359 -54.7464 -30.3085
6 -5.75 11.25 1.4 11.6982 -56.7879 -61.091
7 -5.5 11.25 1.4 11.461 -54.326 -71.7317
8 -5.25 11.25 1.4 11.2244 -57.0692 -110.167
9 -5 11.25 1.4 10.9884 -57.0291 -124.405
10 -4.75 11.25 1.4 10.7531 -55.9685 -155.141
11 -4.5 11.25 1.4 10.5184 -57.9234 169.784
12 -4.25 11.25 1.4 10.2844 -56.7092 140.363
13 -4 11.25 1.4 10.0512 -58.6103 113.314
14 -3.75 11.25 1.4 9.81886 -57.0817 44.4448
15 -3.5 11.25 1.4 9.58737 -59.7159 24.3817
16 -3.25 11.25 1.4 9.35684 -59.2726 -43.5219
17 -3 11.25 1.4 9.12734 -55.2261 -96.9434
18 -2.75 11.25 1.4 8.89893 -56.2494 -20.2919
19 -2.5 11.25 1.4 8.67173 -57.7036 -128.501
20 -2.25 11.25 1.4 8.4458 -58.0663 150.524
21 -2 11.25 1.4 8.22128 -55.0385 124.024
22 -1.75 11.25 1.4 7.99826 -67.3651 -114.762
23 -1.5 11.25 1.4 7.77688 -64.4569 -120.087
24 -1.25 11.25 1.4 7.5573 -67.3756 132.058
25 -1 11.25 1.4 7.33965 -56.6323 38.3819
26 -0.75 11.25 1.4 7.12413 -55.239 -29.9704
27 -0.5 11.25 1.4 6.91094 -55.6261 -130.994
28 -0.25 11.25 1.4 6.70029 -54.8357 100.626
29 -1.77636e-15 11.25 1.4 6.49243 -53.5983 -5.92819
30 0.25 11.25 1.4 6.28764 -55.9254 -121.846
31 0.5 11.25 1.4 6.08623 -57.6865 122.01
32 0.75 11.25 1.4 5.88854 -51.5184 -33.946
33 1 11.25 1.4 5.69497 -51.2852 156.178
34 1.25 11.25 1.4 5.50595 -56.1797 -25.182
35 1.5 11.25 1.4 5.32196 -58.7197 -169.645
36 1.75 11.25 1.4 5.14355 -60.7145 -9.41657
37 2 11.25 1.4 4.9713 -55.1886 -133.765
38 2.25 11.25 1.4 4.8059 -48.5958 -36.4571
39 2.5 11.25 1.4 4.64805 -49.8972 63.3771
40 2.75 11.25 1.4 4.49858 -50.3217 136.083
41 3 11.25 1.4 4.35832 -50.9134 175.331
42 3.25 11.25 1.4 4.22821 -51.0136 -175.653
43 3.5 11.25 1.4 4.1092 -50.6928 177.313
44 3.75 11.25 1.4 4.00229 -49.1396 150.538
45 4 11.25 1.4 3.90846 -48.935 37.3051
46 4.25 11.25 1.4 3.82869 -53.9318 -92.6255
47 4.5 11.25 1.4 3.76386 -61.0858 80.6468
48 4.75 11.25 1.4 3.71476 -56.6486 -27.4171
49 5 11.25 1.4 3.68201 -54.0572 68.5575
50 5.25 11.25 1.4 3.66606 -51.3427 110.38
51 5.5 11.25 1.4 3.66712 -53.6765 111.304
52 5.75 11.25 1.4 3.68518 -57.9455 17.9745
53 6 11.25 1.4 3.71999 -53.2178 94.0644
54 6.25 11.25 1.4 3.77109 -51.931 -59.0983
55 6.5 11.25 1.4 3.83782 -48.7338 123.487
56 6.75 11.25 1.4 3.9194 -47.3409 -98.7478
57 7 11.25 1.4 4.0149 -46.9225 9.95333
58 7.25 11.25 1.4 4.12337 -49.0428 74.3395
59 7.5 11.25 1.4 4.24382 -51.6442 100.701
60 7.75 11.25 1.4 4.37525 -50.5554 62.3224
61 8 11.25 1.4 4.5167 -49.5324 29.9768
62 8.25 11.25 1.4 4.66726 -48.3905 -8.21719
63 8.5 11.25 1.4 4.82609 -49.8628 -85.3449
64 8.75 11.25 1.4 4.99238 -60.9661 155.034
65 9 11.25 1.4 5.16543 -62.7488 14.3321
66 9.25 11.25 1.4 5.34457 -59.276 168.138
67 9.5 11.25 1.4 5.52922 -51.4602 -24.261
68 9.75 11.25 1.4 5.71883 -49.2944 174.843
69 10 11.25 1.4 5.91293 -49.7752 3.73703
70 10.25 11.25 1.4 6.1111 -52.1574 158.396
71 10.5 11.25 1.4 6.31295 -52.3773 -86.7124
72 10.75 11.25 1.4 6.51814 -51.9813 40.0193
73 11 11.25 1.4 6.72636 -52.7034 157.311
74 11.25 11.25 1.4 6.93734 -53.0743 -76.8599
75 11.5 11.25 1.4 7.15084 -55.4702 23.9547
76 11.75 11.25 1.4 7.36663 -58.8956 131.029
77 12 11.25 1.4 7.58453 -60.1909 -93.2087
78 12.25 11.25 1.4 7.80435 -60.8953 -85.396
79 12.5 11.25 1.4 8.02593 -63.8757 -171.843
80 12.75 11.25 1.4 8.24914 -67.4413 14.2687
81 13 11.25 1.4 8.47385 -65.8134 128.544
82 13.25 11.25 1.4 8.69994 -57.843 73.1055
83 13.5 11.25 1.4 8.9273 -64.6912 111.2
84 13.75 11.25 1.4 9.15584 -62.8029 -158.3
85 14 11.25 1.4 9.38548 -56.1991 -127.728
86 14.25 11.25 1.4 9.61613 -61.5279 -74.628
87 14.5 11.25 1.4 9.84773 -59.1039 -31.2359
88 14.75 11.25 1.4 10.0802 -58.7792 -3.70156
89 15 11.25 1.4 10.3135 -60.3422 63.0692
90 15.25 11.25 1.4 10.5476 -57.1176 93.8839
91 15.5 11.25 1.4 10.7823 -59.5526 123.242
92 15.75 11.25 1.4 11.0178 -57.0604 142.49
93 16 11.25 1.4 11.2539 -58.1244 170.991
94 16.25 11.25 1.4 11.4905 -58.053 -170.037
95 16.5 11.25 1.4 11.7277 -56.2923 -135.697
96 16.75 11.25 1.4 11.9655 -59.5832 -121.038
97 17 11.25 1.4 12.2037 -67.2425 -60.9025
98 17.25 11.25 1.4 12.4424 -59.5377 -52.3879
99 17.5 11.25 1.4 12.6815 -55.7375 -46.4699
100 17.75 11.25 1.4 12.9211 -65.7577 -17.1103
101 18 11.25 1.4 13.161 -58.6245 -15.6528
102 18.25 11.25 1.4 13.4013 -63.4632 -27.5655
103 18.5 11.25 1.4 13.6419 -62.2671 -44.5091
104 18.75 11.25 1.4 13.8829 -73.8891 -35.5766
105 19 11.25 1.4 14.1242 -69.5005 -19.7277
106 19.25 11.25 1.4 14.3658 -66.8434 -83.0038
107 19.5 11.25 1.4 14.6076 -70.8188 -26.1561
108 19.75 11.25 1.4 14.8498 -63.1522 -172.958
109 20 11.25 1.4 15.0922 -60.9998 -78.2087
110 20.25 11.25 1.4 15.3348 -62.6593 -133.315
111 20.5 11.25 1.4 15.5777 -65.4745 141.287
112 20.75 11.25 1.4 15.8208 -65.0604 -58.5433
113 21 11.25 1.4 16.0641 -66.158 -54.9038
114 21.25 11.25 1.4 16.3076 -65.3214 115.721
115 21.5 11.25 1.4 16.5513 -63.6237 -89.7847
116 21.75 11.25 1.4 16.7952 -67.5242 -39.9161
117 22 11.25 1.4 17.0393 -70.0434 133.596
118 22.25 11.25 1.4 17.2835 -63.9765 -129.09
119 22.5 11.25 1.4 17.5279 -66.1489 -55.5279
120 22.75 11.25 1.4 17.7724 -69.5533 -113.549
121 23 11.25 1.4 18.0171 -61.9299 -158.337
122 23.25 11.25 1.4 18.262 -65.7571 -122.782
123 23.5 11.25 1.4 18.507 -67.7753 -53.7556
124 23.75 11.25 1.4 18.7521 -78.2207 -173.987
125 24 11.25 1.4 18.9973 -65.5255 -159.366
126 24.25 11.25 1.4 19.2427 -62.2032 -109.987
127 -7 11.5 1.4 12.8224 -60.6687 -135.578
128 -6.75 11.5 1.4 12.5816 -63.9238 127.495
129 -6.5 11.5 1.4 12.3412 -54.2843 -170.502
130 -6.25 11.5 1.4 12.1011 -63.0149 159.95
131 -6 11.5 1.4 11.8615 -56.193 131.942
132 -5.75 11.5 1.4 11.6223 -59.9368 93.2942
133 -5.5 11.5 1.4 11.3836 -58.3211 118.453
134 -5.25 11.5 1.4 11.1453 -60.2263 56.5535
135 -5 11.5 1.4 10.9076 -65.1371 77.4702
136 -4.75 11.5 1.4 10.6705 -66.3889 78.3699
137 -4.5 11.5 1.4 10.4339 -63.6995 140.668
138 -4.25 11.5 1.4 10.198 -63.7925 79.6021
139 -4 11.5 1.4 9.9628 -57.6534 48.26
140 -3.75 11.5 1.4 9.72832 -69.4903 48.5531
141 -3.5 11.5 1.4 9.49463 -56.5936 -22.8229
142 -3.25 11.5 1.4 9.26179 -76.6258 -59.3265
143 -3 11.5 1.4 9.02987 -67.9612 109.682
144 -2.75 11.5 1.4 8.79894 -55.4395 -150.956
145 -2.5 11.5 1.4 8.56908 -59.8458 -88.5129
146 -2.25 11.5 1.4 8.34038 -57.0789 154.046
147 -2 11.5 1.4 8.11293 -55.9025 86.8196
148 -1.75 11.5 1.4 7.88685 -56.7219 19.6572
149 -1.5 11.5 1.4 7.66226 -55.5094 -70.0707
150 -1.25 11.5 1.4 7.43929 -58.7202 117.849
151 -1 11.5 1.4 7.21809 -56.8795 23.782
152 -0.75 11.5 1.4 6.99883 -54.0536 -56.8108
153 -0.5 11.5 1.4 6.78169 -56.2836 -132.318
154 -0.25 11.5 1.4 6.5669 -61.3031 125.811
155 -1.77636e-15 11.5 1.4 6.35468 -59.2381 41.0932
156 0.25 11.5 1.4 6.1453 -59.0461 -53.0347
157 0.5 11.5 1.4 5.93906 -58.6356 -103.037
158 0.75 11.5 1.4 5.73631 -53.3599 104.182
159 1 11.5 1.4 5.53742 -52.7004 -44.994
160 1.25 11.5 1.4 5.34283 -51.1056 141.529
161 1.5 11.5 1.4 5.15302 -54.3865 -44.0745
162 1.75 11.5 1.4 4.96854 -62.663 -126.274
163 2 11.5 1.4 4.79 -53.6893 4.86979
164 2.25 11.5 1.4 4.61811 -52.5077 128.919
165 2.5 11.5 1.4 4.45362 -51.8616 -137.025
166 2.75 11.5 1.4 4.29738 -53.4696 5.31577
167 3 11.5 1.4 4.15033 -53.9214 76.4265
168 3.25 11.5 1.4 4.01348 -49.3477 127.93
169 3.5 11.5 1.4 3.88791 -49.2051 119.459
170 3.75 11.5 1.4 3.77473 -50.7432 99.9345
171 4 11.5 1.4 3.6751 -49.5557 38.8929
172 4.25 11.5 1.4 3.59015 -49.1264 -71.1504
173 4.5 11.5 1.4 3.52093 -52.8246 140.857
174 4.75 11.5 1.4 3.46839 -50.9556 -63.0858
175 5 11.5 1.4 3.43329 -51.2442 37.2222
176 5.25 11.5 1.4 3.41618 -48.9336 90.3355
177 5.5 11.5 1.4 3.41732 -50.9357 79.2539
178 5.75 11.5 1.4 3.43669 -54.5965 9.11119
179 6 11.5 1.4 3.47399 -52.9141 165.308
180 6.25 11.5 1.4 3.52865 -59.8096 -61.4106
181 6.5 11.5 1.4 3.59988 -49.324 96.1739
182 6.75 11.5 1.4 3.68673 -45.5043 -126.658
183 7 11.5 1.4 3.7881 -45.7479 -23.9652
184 7.25 11.5 1.4 3.90288 -48.6376 16.3384
185 7.5 11.5 1.4 4.02992 -49.256 23.8265
186 7.75 11.5 1.4 4.1681 -48.2565 21.0097
187 8 11.5 1.4 4.31635 -61.7515 -72.3994
188 8.25 11.5 1.4 4.47366 -49.8751 151.778
189 8.5 11.5 1.4 4.63912 -47.7191 79.7012
190 8.75 11.5 1.4 4.81188 -47.2681 -28.905
191 9 11.5 1.4 4.99119 -51.6898 177.491
192 9.25 11.5 1.4 5.17636 -54.9104 -27.9168
193 9.5 11.5 1.4 5.3668 -51.5724 136.231
194 9.75 11.5 1.4 5.56195 -50.2987 -46.3407
195 10 11.5 1.4 5.76134 -50.5686 121.368
196 10.25 11.5 1.4 5.96455 -56.1214 -78.8641
197 10.5 11.5 1.4 6.17119 -62.6923 23.5616
198 10.75 11.5 1.4 6.38094 -58.324 118.488
199 11 11.5 1.4 6.5935 -60.2365 -147.396
200 11.25 11.5 1.4 6.8086 -56.268 -107.119
201 11.5 11.5 1.4 7.02601 -57.0735 2.8626
202 11.75 11.5 1.4 7.24552 -54.5924 116.066
203 12 11.5 1.4 7.46695 -54.1597 -161.71
204 12.25 11.5 1.4 7.69013 -59.8549 -91.0922
205 12.5 11.5 1.4 7.91491 -69.5316 91.1446
206 12.75 11.5 1.4 8.14117 -64.9822 -87.7579
207 13 11.5 1.4 8.36878 -57.6709 -6.81095
208 13.25 11.5 1.4 8.59763 -57.9966 47.6847
209 13.5 11.5 1.4 8.82763 -57.9099 114.076
210 13.75 11.5 1.4 9.05868 -55.0436 159.332
211 14 11.5 1.4 9.29072 -62.1614 -172.809
212 14.25 11.5 1.4 9.52367 -56.618 -94.1896
213 14.5 11.5 1.4 9.75746 -58.5116 -90.3386
214 14.75 11.5 1.4 9.99204 -64.7826 21.2054
215 15 11.5 1.4 10.2273 -62.2663 31.1008
216 15.25 11.5 1.4 10.4633 -73.1479 -92.4628
217 15.5 11.5 1.4 10.7 -70.0442 80.4592
218 15.75 11.5 1.4 10.9372 -64.5983 -7.5119
219 16 11.5 1.4 11.175 -63.809 -34.9241
220 16.25 11.5 1.4 11.4133 -65.157 3.23758
221 16.5 11.5 1.4 11.6521 -57.7621 34.4563
222 16.75 11.5 1.4 11.8913 -55.9651 29.521
223 17 11.5 1.4 12.131 -63.7868 72.9405
224 17.25 11.5 1.4 12.3711 -64.8513 107.859
225 17.5 11.5 1.4 12.6116 -56.3681 114.951
226 17.75 11.5 1.4 12.8524 -67.2046 8.33962
227 18 11.5 1.4 13.0936 -60.1835 145.286
228 18.25 11.5 1.4 13.3351 -68.8389 151.365
229 18.5 11.5 1.4 13.5769 -78.3959 66.7467
230 18.75 11.5 1.4 13.819 -71.0259 -49.4769
231 19 11.5 1.4 14.0614 -75.6488 -100.523
232 19.25 11.5 1.4 14.3041 -80.2049 -43.4158
233 19.5 11.5 1.4 14.5469 -65.4976 108.708
234 19.75 11.5 1.4 14.7901 -64.2894 -81.5659
235 20 11.5 1.4 15.0334 -71.1766 -155.375
236 20.25 11.5 1.4 15.277 -61.6978 69.929
237 20.5 11.5 1.4 15.5208 -75.2372 -36.2954
238 20.75 11.5 1.4 15.7648 -74.2684 -65.312
239 21 11.5 1.4 16.0089 -63.1028 70.7342
240 21.25 11.5 1.4 16.2533 -70.0187 -162.184
241 21.5 11.5 1.4 16.4978 -75.5357 -49.0372
242 21.75 11.5 1.4 16.7424 -64.3512 81.1527
243 22 11.5 1.4 16.9872 -67.9035 129.725
244 22.25 11.5 1.4 17.2322 -66.8043 -23.144
245 22.5 11.5 1.4 17.4773 -62.8776 21.6927
246 22.75 11.5 1.4 17.7226 -66.6627 99.0378
247 23 11.5 1.4 17.968 -69.4341 109.184
248 23.25 11.5 1.4 18.2135 -69.3992 -23.5597
249 23.5 11.5 1.4 18.4591 -63.9936 29.8363
250 23.75 11.5 1.4 18.7048 -62.748 60.4401
251 24 11.5 1.4 18.9507 -70.096 38.5053
252 24.25 11.5 1.4 19.1967 -80.4369 10.6072
253 -7 11.75 1.4 12.7581 -61.4541 16.936
254 -6.75 11.75 1.4 12.5161 -62.4866 -20.0643
255 -6.5 11.75 1.4 12.2744 -57.7773 9.00174
256 -6.25 11.75 1.4 12.033 -71.2377 -131.198
257 -6 11.75 1.4 11.792 -64.7575 -22.2006
258 -5.75 11.75 1.4 11.5513 -70.368 112.441
259 -5.5 11.75 1.4 11.3111 -60.5621 -5.71497
260 -5.25 11.75 1.4 11.0713 -65.2249 -6.8421
261 -5 11.75 1.4 10.832 -57.3026 -25.7331
262 -4.75 11.75 1.4 10.5931 -56.7106 -66.8695
263 -4.5 11.75 1.4 10.3548 -55.6138 -68.9051
264 -4.25 11.75 1.4 10.1171 -59.0693 -112.032
265 -4 11.75 1.4 9.87991 -54.9457 -121.375
266 -3.75 11.75 1.4 9.64342 -55.2566 -64.2323
267 -3.5 11.75 1.4 9.40762 -55.616 -155.883
268 -3.25 11.75 1.4 9.17257 -60.4067 -150.742
269 -3 11.75 1.4 8.93834 -65.6896 156.856
270 -2.75 11.75 1.4 8.70498 -60.9331 42.6349
271 -2.5 11.75 1.4 8.47257 -64.8773 -141.636
272 -2.25 11.75 1.4 8.24119 -61.0202 111.034
273 -2 11.75 1.4 8.01093 -57.0597 32.9131
274 -1.75 11.75 1.4 7.78189 -55.1139 -17.3931
275 -1.5 11.75 1.4 7.55417 -58.5144 -122.293
276 -1.25 11.75 1.4 7.32791 -58.5518 173.514
277 -1 11.75 1.4 7.10324 -64.5619 129.464
278 -0.75 11.75 1.4 6.88032 -56.4473 -86.4176
279 -0.5 11.75 1.4 6.65933 -55.642 -131.01
280 -0.25 11.75 1.4 6.44045 -57.4866 155.415
281 -1.77636e-15 11.75 1.4 6.22392 -58.444 99.3138
282 0.25 11.75 1.4 6.00999 -52.6375 -0.588257
283 0.5 11.75 1.4 5.79894 -51.0507 -136.305
284 0.75 11.75 1.4 5.59111 -65.7845 69.9115
285 1 11.75 1.4 5.38686 -54.7481 71.2392
286 1.25 11.75 1.4 5.18663 -50.8716 -92.8494
287 1.5 11.75 1.4 4.99088 -52.9057 82.4686
288 1.75 11.75 1.4 4.80017 -58.5461 -52.305
289 2 11.75 1.4 4.61513 -50.9711 159.778
290 2.25 11.75 1.4 4.43646 -51.4439 -47.2257
291 2.5 11.75 1.4 4.26497 -50.5372 114.507
292 2.75 11.75 1.4 4.10156 -50.1366 -128.199
293 3 11.75 1.4 3.94722 -49.4086 -56.1794
294 3.25 11.75 1.4 3.80307 -53.7836 21.4877
295 3.5 11.75 1.4 3.6703 -51.4959 73.5035
296 3.75 11.75 1.4 3.55019 -48.1725 50.658
297 4 11.75 1.4 3.44408 -46.3564 -7.28487
298 4.25 11.75 1.4 3.35327 -49.9316 -123.199
299 4.5 11.75 1.4 3.27906 -58.1377 179.837
300 4.75 11.75 1.4 3.22258 -49.987 -27.5335
301 5 11.75 1.4 3.18477 -47.3892 61.1256
302 5.25 11.75 1.4 3.16632 -46.0538 114.443
303 5.5 11.75 1.4 3.16754 -46.6442 106.723
304 5.75 11.75 1.4 3.18844 -46.8423 -138.576
305 6 11.75 1.4 3.22861 -50.6972 132.372
306 6.25 11.75 1.4 3.28735 -49.7489 -62.7931
307 6.5 11.75 1.4 3.3637 -45.7631 106.608
308 6.75 11.75 1.4 3.45648 -45.4245 -130.167
309 7 11.75 1.4 3.56441 -47.4317 -54.2227
310 7.25 11.75 1.4 3.68616 -50.9148 -60.2852
311 7.5 11.75 1.4 3.82042 -50.3185 -81.742
312 7.75 11.75 1.4 3.9659 -54.2371 -121.417
313 8 11.75 1.4 4.12142 -47.8293 167.5
314 8.25 11.75 1.4 4.2859 -50.7143 101.112
315 8.5 11.75 1.4 4.45833 -51.8898 -140.553
316 8.75 11.75 1.4 4.63783 -47.9123 108.522
317 9 11.75 1.4 4.82361 -52.3796 -24.4882
318 9.25 11.75 1.4 5.01498 -55.4621 103.173
319 9.5 11.75 1.4 5.21132 -48.8195 -79.2688
320 9.75 11.75 1.4 5.41208 -49.4139 93.9477
321 10 11.75 1.4 5.61679 -63.4996 -118.442
322 10.25 11.75 1.4 5.82504 -55.2415 -69.0468
323 10.5 11.75 1.4 6.03647 -55.2041 48.5988
324 10.75 11.75 1.4 6.25074 -58.0132 148.898
325 11 11.75 1.4 6.46757 -57.7821 -139.751
326 11.25 11.75 1.4 6.68672 -64.8146 -33.258
327 11.5 11.75 1.4 6.90797 -69.9884 1.73063
328 11.75 11.75 1.4 7.13112 -55.7763 62.9609
329 12 11.75 1.4 7.35599 -52.1716 132.87
330 12.25 11.75 1.4 7.58244 -63.6669 -120.495
331 12.5 11.75 1.4 7.81032 -61.0073 20.8747
332 12.75 11.75 1.4 8.03952 -65.9542 -104.626
333 13 11.75 1.4 8.26993 -54.9607 -63.3669
334 13.25 11.75 1.4 8.50144 -56.4876 -5.3234
335 13.5 11.75 1.4 8.73397 -56.4948 72.2087
336 13.75 11.75 1.4 8.96744 -58.5302 97.4927
337 14 11.75 1.4 9.20178 -64.4753 -156.021
338 14.25 11.75 1.4 9.43693 -62.3391 169.096
339 14.5 11.75 1.4 9.67282 -64.1115 56.2328
340 14.75 11.75 1.4 9.9094 -68.1428 -178.923
341 15 11.75 1.4 10.1466 -58.1799 173.756
342 15.25 11.75 1.4 10.3844 -62.5473 -171.943
343 15.5 11.75 1.4 10.6228 -57.5497 -120.622
344 15.75 11.75 1.4 10.8617 -59.8719 -120.358
345 16 11.75 1.4 11.1011 -62.5738 -77.9565
346 16.25 11.75 1.4 11.341 -61.2676 -38.6019
347 16.5 11.75 1.4 11.5813 -61.7108 -50.2849
348 16.75 11.75 1.4 11.8219 -71.1706 -169.692
349 17 11.75 1.4 12.063 -66.4404 -137.021
350 17.25 11.75 1.4 12.3044 -62.8884 -166.284
351 17.5 11.75 1.4 12.5462 -55.7792 -111.898
352 17.75 11.75 1.4 12.7883 -61.6286 -146.717
353 18 11.75 1.4 13.0306 -64.2059 -70.6483
354 18.25 11.75 1.4 13.2733 -65.0835 -82.3983
355 18.5 11.75 1.4 13.5162 -62.0273 -44.0392
356 18.75 11.75 1.4 13.7594 -77.3404 -28.9601
357 19 11.75 1.4 14.0028 -74.7109 -36.5988
358 19.25 11.75 1.4 14.2464 -62.1108 67.1086
359 19.5 11.75 1.4 14.4903 -64.3763 -143.783
360 19.75 11.75 1.4 14.7344 -88.5987 54.128
361 20 11.75 1.4 14.9786 -61.274 47.2786
362 20.25 11.75 1.4 15.2231 -82.257 159.961
363 20.5 11.75 1.4 15.4677 -68.0058 -172.024
364 20.75 11.75 1.4 15.7125 -66.0696 44.4759
365 21 11.75 1.4 15.9575 -63.542 152.369
366 21.25 11.75 1.4 16.2026 -66.7005 -173.562
367 21.5 11.75 1.4 16.4478 -70.0463 22.0485
368 21.75 11.75 1.4 16.6932 -64.1937 108.688
369 22 11.75 1.4 16.9388 -70.3309 -155.5
370 22.25 11.75 1.4 17.1844 -65.0746 -39.2333
371 22.5 11.75 1.4 17.4302 -69.4443 28.3839
372 22.75 11.75 1.4 17.6761 -69.524 90.1184
373 23 11.75 1.4 17.9221 -67.4642 -115.336
374 23.25 11.75 1.4 18.1683 -63.9582 -71.203
375 23.5 11.75 1.4 18.4145 -66.3423 -25.4068
376 23.75 11.75 1.4 18.6608 -72.682 -133.379
377 24 11.75 1.4 18.9072 -63.8167 -153.535
378 24.25 11.75 1.4 19.1538 -63.4481 -123.34
379 -7 12 1.4 12.6984 -69.3881 -150.915
380 -6.75 12 1.4 12.4552 -80.0447 136.109
381 -6.5 12 1.4 12.2123 -60.0702 -128.55
382 -6.25 12 1.4 11.9697 -61.9432 -65.8794
383 -6 12 1.4 11.7274 -56.6138 -156.036
384 -5.75 12 1.4 11.4854 -60.1924 -149.168
385 -5.5 12 1.4 11.2437 -56.4201 161.036
386 -5.25 12 1.4 11.0025 -61.4765 141.914
387 -5 12 1.4 10.7616 -59.445 120.199
388 -4.75 12 1.4 10.5212 -62.2055 73.7169
389 -4.5 12 1.4 10.2812 -62.1256 143.412
390 -4.25 12 1.4 10.0417 -60.4062 130.71
391 -4 12 1.4 9.8027 -55.115 73.7178
392 -3.75 12 1.4 9.5643 -60.1816 144.584
393 -3.5 12 1.4 9.3265 -58.8758 71.5885
394 -3.25 12 1.4 9.08935 -54.3968 99.9303
395 -3 12 1.4 8.85292 -55.3971 74.907
396 -2.75 12 1.4 8.61724 -55.7942 5.46608
397 -2.5 12 1.4 8.3824 -59.1255 -0.959112
398 -2.25 12 1.4 8.14846 -62.6157 125.236
399 -2 12 1.4 7.91551 -59.9521 -3.06648
400 -1.75 12 1.4 7.68362 -53.7797 -104.072
401 -1.5 12 1.4 7.45291 -58.7858 -154.425
402 -1.25 12 1.4 7.22347 -61.7204 90.6295
403 -1 12 1.4 6.99545 -60.5927 145.271
404 -0.75 12 1.4 6.76898 -59.4144 79.9185
405 -0.5 12 1.4 6.54423 -58.6999 29.0192
406 -0.25 12 1.4 6.32137 -56.4742 150.196
407 -1.77636e-15 12 1.4 6.10061 -53.3945 73.1297
408 0.25 12 1.4 5.8822 -56.7294 -41.013
409 0.5 12 1.4 5.6664 -58.6803 -43.2531
410 0.75 12 1.4 5.45351 -51.5781 -169.001
411 1 12 1.4 5.24391 -54.5899 41.5966
412 1.25 12 1.4 5.03799 -54.2025 14.8347
413 1.5 12 1.4 4.83623 -49.0414 -167.217
414 1.75 12 1.4 4.63917 -60.884 33.0393
415 2 12 1.4 4.44744 -51.2279 -61.6825
416 2.25 12 1.4 4.26175 -51.8991 55.7027
417 2.5 12 1.4 4.08292 -53.4501 -72.9786
418 2.75 12 1.4 3.91191 -50.4282 37.6826
419 3 12 1.4 3.74978 -52.9217 -166.599
420 3.25 12 1.4 3.59772 -50.5364 -79.8269
421 3.5 12 1.4 3.45708 -48.0678 -49.085
422 3.75 12 1.4 3.32929 -53.8569 -39.3072
423 4 12 1.4 3.21589 -48.4407 -30.1864
424 4.25 12 1.4 3.11845 -48.2978 -137.487
425 4.5 12 1.4 3.0385 -50.8181 142.921
426 4.75 12 1.4 2.97746 -48.307 -38.4111
427 5 12 1.4 2.93651 -46.2202 64.1885
428 5.25 12 1.4 2.91648 -45.2752 124.218
429 5.5 12 1.4 2.91781 -45.4543 103.505
430 5.75 12 1.4 2.94048 -46.9958 -114.088
431 6 12 1.4 2.98399 -49.5307 166.392
432 6.25 12 1.4 3.04745 -52.0142 -72.1239
433 6.5 12 1.4 3.12966 -46.3961 76.1821
434 6.75 12 1.4 3.22917 -44.9394 -174.407
435 7 12 1.4 3.34444 -47.2456 -116.175
436 7.25 12 1.4 3.47391 -47.8646 -119.133
437 7.5 12 1.4 3.61606 -51.6586 -169.417
438 7.75 12 1.4 3.76944 -48.0362 101.347
439 8 12 1.4 3.93274 -51.6968 -18.7541
440 8.25 12 1.4 4.10478 -48.5315 -116.339
441 8.5 12 1.4 4.2845 -53.7843 97.9977
442 8.75 12 1.4 4.47099 -47.3702 -87.4921
443 9 12 1.4 4.66343 -47.1658 112.66
444 9.25 12 1.4 4.8611 -53.822 -121.916
445 9.5 12 1.4 5.06341 -48.9928 18.8028
446 9.75 12 1.4 5.26981 -53.3273 -177.531
447 10 12 1.4 5.47984 -55.9505 -133.654
448 10.25 12 1.4 5.6931 -52.0721 -2.26613
449 10.5 12 1.4 5.90925 -60.8358 131.74
450 10.75 12 1.4 6.12797 -60.2036 121.67
451 11 12 1.4 6.349 -61.8911 -134.717
452 11.25 12 1.4 6.5721 -60.7796 -37.8392
453 11.5 12 1.4 6.79708 -59.3346 28.5453
454 11.75 12 1.4 7.02375 -60.685 12.5071
455 12 12 1.4 7.25196 -53.5333 50.2471
456 12.25 12 1.4 7.48156 -57.5888 169.789
457 12.5 12 1.4 7.71242 -65.1223 -86.9425
458 12.75 12 1.4 7.94445 -58.0994 147.9
459 13 12 1.4 8.17753 -54.404 -158.005
460 13.25 12 1.4 8.41159 -56.345 -35.4821
461 13.5 12 1.4 8.64654 -60.1474 -11.5577
462 13.75 12 1.4 8.88231 -64.5482 -88.4829
463 14 12 1.4 9.11883 -62.0854 -80.0897
464 14.25 12 1.4 9.35606 -56.5749 -15.0396
465 14.5 12 1.4 9.59394 -59.9825 11.9741
466 14.75 12 1.4 9.83242 -57.239 59.2507
467 15 12 1.4 10.0715 -63.9346 58.8125
468 15.25 12 1.4 10.311 -61.8208 -150.083
469 15.5 12 1.4 10.5511 -66.7412 87.6941
470 15.75 12 1.4 10.7916 -64.0143 0.945632
471 16 12 1.4 11.0325 -75.0128 -26.4186
472 16.25 12 1.4 11.2738 -66.4469 35.6729
473 16.5 12 1.4 11.5155 -60.5498 90.3798
474 16.75 12 1.4 11.7575 -64.1098 127.74
475 17 12 1.4 11.9999 -68.5551 70.802
476 17.25 12 1.4 12.2425 -64.5479 -76.0684
477 17.5 12 1.4 12.4855 -77.5658 110.33
478 17.75 12 1.4 12.7287 -61.367 -30.694
479 18 12 1.4 12.9722 -65.9633 38.9897
480 18.25 12 1.4 13.2159 -68.933 79.72
481 18.5 12 1.4 13.4599 -61.8074 103.848
482 18.75 12 1.4 13.704 -64.7539 95.3704
483 19 12 1.4 13.9484 -64.2963 69.7375
484 19.25 12 1.4 14.193 -61.308 168.91
485 19.5 12 1.4 14.4378 -62.9568 150.767
486 19.75 12 1.4 14.6827 -64.4663 -38.2176
487 20 12 1.4 14.9278 -70.7145 -143.202
488 20.25 12 1.4 15.1731 -64.1029 168.648
489 20.5 12 1.4 15.4185 -68.0509 -39.2868
490 20.75 12 1.4 15.6641 -67.1688 141.33
491 21 12 1.4 15.9098 -65.6302 -171.811
492 21.25 12 1.4 16.1556 -67.4939 -20.0955
493 21.5 12 1.4 16.4016 -67.4226 72.7009
494 21.75 12 1.4 16.6477 -70.6443 117.735
495 22 12 1.4 16.8938 -72.8783 -139.998
496 22.25 12 1.4 17.1402 -66.1968 -1.56492
497 22.5 12 1.4 17.3866 -62.6634 36.4311
498 22.75 12 1.4 17.6331 -66.5021 104.331
499 23 12 1.4 17.8797 -71.2721 -122.67
500 23.25 12 1.4 18.1264 -64.1629 -19.0796
501 23.5 12 1.4 18.3732 -62.7248 8.61505
502 23.75 12 1.4 18.6201 -64.4647 26.8358
503 24 12 1.4 18.867 -64.6758 -32.5997
504 24.25 12 1.4 19.1141 -62.5073 -54.5362
505 -7 12.25 1.4 12.6434 -60.0556 94.349
506 -6.75 12.25 1.4 12.3991 -62.3346 68.111
507 -6.5 12.25 1.4 12.1551 -57.4326 38.5337
508 -6.25 12.25 1.4 11.9113 -64.3755 -1.69255
509 -6 12.25 1.4 11.6677 -55.8045 -9.14115
510 -5.75 12.25 1.4 11.4245 -68.6116 -47.6596
511 -5.5 12.25 1.4 11.1815 -62.4432 -65.3417
512 -5.25 12.25 1.4 10.9389 -67.7471 24.6425
513 -5 12.25 1.4 10.6966 -59.6167 31.5781
514 -4.75 12.25 1.4 10.4547 -65.2649 -95.3846
515 -4.5 12.25 1.4 10.2131 -68.8598 -78.6949
516 -4.25 12.25 1.4 9.97199 -59.4537 36.6792
517 -4 12.25 1.4 9.7313 -61.3516 -64.0983
518 -3.75 12.25 1.4 9.49111 -55.6407 -42.0041
519 -3.5 12.25 1.4 9.25142 -57.7818 -109.717
520 -3.25 12.25 1.4 9.0123 -61.7525 -77.4506
521 -3 12.25 1.4 8.77379 -58.4361 -33.4043
522 -2.75 12.25 1.4 8.53594 -56.5973 -103.456
523 -2.5 12.25 1.4 8.29879 -52.4511 -122.376
524 -2.25 12.25 1.4 8.06243 -68.5103 -142.783
525 -2 12.25 1.4 7.82691 -60.0052 -141.157
526 -1.75 12.25 1.4 7.59232 -54.124 -159.559
527 -1.5 12.25 1.4 7.35874 -58.4712 154.732
528 -1.25 12.25 1.4 7.12628 -74.7067 -60.8192
529 -1 12.25 1.4 6.89505 -62.2314 60.8656
530 -0.75 12.25 1.4 6.66517 -57.0125 22.6008
531 -0.5 12.25 1.4 6.43679 -54.3201 -61.8757
532 -0.25 12.25 1.4 6.21007 -62.8684 22.8545
533 -1.77636e-15 12.25 1.4 5.98521 -54.1841 -106.462
534 0.25 12.25 1.4 5.76243 -53.8251 34.2694
535 0.5 12.25 1.4 5.54196 -53.4377 -103.614
536 0.75 12.25 1.4 5.32411 -69.9414 -93.8564
537 1 12.25 1.4 5.1092 -51.8488 129.174
538 1.25 12.25 1.4 4.89762 -58.1571 6.45461
539 1.5 12.25 1.4 4.68982 -52.2327 -62.6041
540 1.75 12.25 1.4 4.48634 -61.8166 125.254
541 2 12.25 1.4 4.28777 -50.916 39.2572
542 2.25 12.25 1.4 4.09485 -53.3247 -111
543 2.5 12.25 1.4 3.9084 -49.8099 83.0246
544 2.75 12.25 1.4 3.72939 -52.1408 -95.9186
545 3 12.25 1.4 3.55895 -50.4762 20.0411
546 3.25 12.25 1.4 3.39837 -48.2194 124.806
547 3.5 12.25 1.4 3.2491 -53.1628 -119.101
548 3.75 12.25 1.4 3.11279 -46.4464 -103.277
549 4 12.25 1.4 2.99119 -51.5335 -98.8197
550 4.25 12.25 1.4 2.88618 -45.3367 -170.299
551 4.5 12.25 1.4 2.79961 -54.7467 113.821
552 4.75 12.25 1.4 2.73324 -47.7553 -28.4721
553 5 12.25 1.4 2.68856 -45.0281 85.29
554 5.25 12.25 1.4 2.66667 -43.843 149.302
555 5.5 12.25 1.4 2.66813 -46.4964 129.79
556 5.75 12.25 1.4 2.6929 -47.3385 -121.473
557 6 12.25 1.4 2.74034 -47.7543 145.324
558 6.25 12.25 1.4 2.80932 -46.4348 -65.1028
559 6.5 12.25 1.4 2.89828 -45.0107 69.4177
560 6.75 12.25 1.4 3.00546 -46.8786 158.631
561 7 12.25 1.4 3.12899 -52.2339 170.616
562 7.25 12.25 1.4 3.26701 -48.1537 138.269
563 7.5 12.25 1.4 3.41777 -49.293 97.826
564 7.75 12.25 1.4 3.57965 -50.3202 -8.60998
565 8 12.25 1.4 3.75123 -49.3199 -147.795
566 8.25 12.25 1.4 3.93122 -48.3798 40.5634
567 8.5 12.25 1.4 4.11853 -47.7959 -102.821
568 8.75 12.25 1.4 4.3122 -49.1529 25.385
569 9 12.25 1.4 4.51141 -50.7797 -145.809
570 9.25 12.25 1.4 4.71546 -51.4851 -41.422
571 9.5 12.25 1.4 4.92376 -52.1824 114.508
572 9.75 12.25 1.4 5.13577 -55.4269 175.075
573 10 12.25 1.4 5.35107 -50.2125 -57.5465
574 10.25 12.25 1.4 5.56927 -71.4048 33.921
575 10.5 12.25 1.4 5.79003 -52.3142 62.2194
576 10.75 12.25 1.4 6.01309 -61.1634 -149.632
577 11 12.25 1.4 6.23819 -60.5752 -169.269
578 11.25 12.25 1.4 6.46513 -55.3749 -84.9714
579 11.5 12.25 1.4 6.6937 -58.2754 -38.2077
580 11.75 12.25 1.4 6.92376 -63.2384 -29.0365
581 12 12.25 1.4 7.15515 -58.1792 -37.6683
582 12.25 12.25 1.4 7.38776 -57.8183 95.5369
583 12.5 12.25 1.4 7.62147 -60.52 159.091
584 12.75 12.25 1.4 7.85618 -57.613 92.6326
585 13 12.25 1.4 8.0918 -56.6984 132.319
586 13.25 12.25 1.4 8.32827 -58.6793 -145.632
587 13.5 12.25 1.4 8.5655 -66.093 136.587
588 13.75 12.25 1.4 8.80344 -57.5108 155.002
589 14 12.25 1.4 9.04204 -57.7557 -97.1941
590 14.25 12.25 1.4 9.28123 -55.6347 -123.775
591 14.5 12.25 1.4 9.52098 -72.1429 -18.4394
592 14.75 12.25 1.4 9.76124 -65.5719 -119.003
593 15 12.25 1.4 10.002 -57.8499 -153.208
594 15.25 12.25 1.4 10.2432 -58.9727 -150.31
595 15.5 12.25 1.4 10.4848 -57.4771 -106.56
596 15.75 12.25 1.4 10.7267 -70.6352 -128.793
597 16 12.25 1.4 10.9691 -64.2033 159.236
598 16.25 12.25 1.4 11.2118 -57.9672 163.116
599 16.5 12.25 1.4 11.4547 -57.1432 170.527
600 16.75 12.25 1.4 11.698 -65.1258 -123.65
601 17 12.25 1.4 11.9416 -59.0465 -124.234
602 17.25 12.25 1.4 12.1854 -95.9149 72.931
603 17.5 12.25 1.4 12.4295 -81.658 -45.6985
604 17.75 12.25 1.4 12.6738 -65.7264 74.0945
605 18 12.25 1.4 12.9183 -72.4118 -27.1013
606 18.25 12.25 1.4 13.163 -65.123 135.678
607 18.5 12.25 1.4 13.408 -67.0139 -177.109
608 18.75 12.25 1.4 13.6531 -61.5155 -80.0033
609 19 12.25 1.4 13.8983 -63.9147 -161.946
610 19.25 12.25 1.4 14.1438 -77.8984 129.948
611 19.5 12.25 1.4 14.3894 -56.2836 -61.7676
612 19.75 12.25 1.4 14.6351 -61.3285 -89.4606
613 20 12.25 1.4 14.881 -66.5704 -81.3828
614 20.25 12.25 1.4 15.1271 -58.744 -66.5056
615 20.5 12.25 1.4 15.3732 -79.1517 149.198
616 20.75 12.25 1.4 15.6195 -67.0381 -151.298
617 21 12.25 1.4 15.8659 -61.5107 -102.155
618 21.25 12.25 1.4 16.1124 -68.4271 -75.9723
619 21.5 12.25 1.4 16.359 -70.0658 150.693
620 21.75 12.25 1.4 16.6057 -60.4637 175.071
621 22 12.25 1.4 16.8525 -65.3508 -162.927
622 22.25 12.25 1.4 17.0994 -70.4299 104.239
623 22.5 12.25 1.4 17.3464 -59.7441 105.577
624 22.75 12.25 1.4 17.5935 -60.1046 121.146
625 23 12.25 1.4 17.8406 -70.1749 -145.757
626 23.25 12.25 1.4 18.0879 -72.0041 -21.624
627 23.5 12.25 1.4 18.3352 -64.9067 29.9797
628 23.75 12.25 1.4 18.5826 -66.0959 94.0976
629 24 12.25 1.4 18.83 -65.0548 129.054
630 24.25 12.25 1.4 19.0775 -70.7474 167.752
631 -7 12.5 1.4 12.5931 -67.1788 -157.447
632 -6.75 12.5 1.4 12.3478 -60.3167 128.799
633 -6.5 12.5 1.4 12.1027 -65.3957 56.4919
634 -6.25 12.5 1.4 11.8578 -67.3225 38.9935
635 -6 12.5 1.4 11.6132 -64.8816 -165.253
636 -5.75 12.5 1.4 11.3688 -62.0284 -79.2095
637 -5.5 12.5 1.4 11.1246 -62.9793 -156.202
638 -5.25 12.5 1.4 10.8807 -80.1196 118.579
639 -5 12.5 1.4 10.6371 -63.3972 -114.569
640 -4.75 12.5 1.4 10.3938 -61.6109 -123.414
641 -4.5 12.5 1.4 10.1508 -60.151 148.214
642 -4.25 12.5 1.4 9.90812 -61.505 148.518
643 -4 12.5 1.4 9.66585 -63.1201 9.60325
644 -3.75 12.5 1.4 9.42398 -60.1952 -159.89
645 -3.5 12.5 1.4 9.18255 -60.3655 123.893
646 -3.25 12.5 1.4 8.94158 -55.105 122.142
647 -3 12.5 1.4 8.70113 -63.2033 113.577
648 -2.75 12.5 1.4 8.46123 -73.7703 131.166
649 -2.5 12.5 1.4 8.22194 -53.2607 105.734
650 -2.25 12.5 1.4 7.9833 -59.5874 76.0507
651 -2 12.5 1.4 7.74537 -65.1182 41.6633
652 -1.75 12.5 1.4 7.50824 -52.7075 65.8419
653 -1.5 12.5 1.4 7.27196 -56.4122 26.8097
654 -1.25 12.5 1.4 7.03663 -61.2685 52.583
655 -1 12.5 1.4 6.80235 -60.0154 -10.6053
656 -0.75 12.5 1.4 6.56922 -51.5612 -47.7305
657 -0.5 12.5 1.4 6.33739 -64.4999 -145.301
658 -0.25 12.5 1.4 6.10699 -55.2369 -85.4775
659 -1.77636e-15 12.5 1.4 5.87818 -59.2691 148.752
660 0.25 12.5 1.4 5.65118 -62.7609 -146.503
661 0.5 12.5 1.4 5.4262 -54.4169 64.4456
662 0.75 12.5 1.4 5.2035 -52.3169 -170.458
663 1 12.5 1.4 4.98339 -59.4602 169.19
664 1.25 12.5 1.4 4.76623 -52.9707 24.2936
665 1.5 12.5 1.4 4.55244 -54.6529 0.0134874
666 1.75 12.5 1.4 4.34252 -56.8172 -149.244
667 2 12.5 1.4 4.13706 -47.9097 132.18
668 2.25 12.5 1.4 3.93676 -53.8094 1.61649
669 2.5 12.5 1.4 3.74244 -48.7338 -175.325
670 2.75 12.5 1.4 3.55508 -52.3121 35.0071
671 3 12.5 1.4 3.37586 -48.6817 -161.385
672 3.25 12.5 1.4 3.20612 -50.3589 7.24172
673 3.5 12.5 1.4 3.04745 -49.0893 83.368
674 3.75 12.5 1.4 2.90168 -48.119 172.446
675 4 12.5 1.4 2.77083 -49.8656 176.815
676 4.25 12.5 1.4 2.65712 -44.6934 166.047
677 4.5 12.5 1.4 2.56283 -49.5447 85.3011
678 4.75 12.5 1.4 2.49015 -47.2553 -54.5513
679 5 12.5 1.4 2.44103 -46.1025 80.7979
680 5.25 12.5 1.4 2.4169 -44.8356 155.246
681 5.5 12.5 1.4 2.41851 -47.1937 133.17
682 5.75 12.5 1.4 2.44581 -46.1425 -86.5096
683 6 12.5 1.4 2.49795 -50.3498 127.743
684 6.25 12.5 1.4 2.57343 -47.5369 -77.2003
685 6.5 12.5 1.4 2.67027 -44.9898 18.6401
686 6.75 12.5 1.4 2.78623 -46.5932 91.9791
687 7 12.5 1.4 2.91905 -48.7151 74.2
688 7.25 12.5 1.4 3.06654 -55.2896 44.9054
689 7.5 12.5 1.4 3.22668 -48.5649 -90.697
690 7.75 12.5 1.4 3.39768 -48.1863 152.295
691 8 12.5 1.4 3.57799 -49.4243 4.43579
692 8.25 12.5 1.4 3.76627 -50.3093 -158.707
693 8.5 12.5 1.4 3.96138 -46.6912 38.4762
694 8.75 12.5 1.4 4.16237 -54.5845 149.124
695 9 12.5 1.4 4.36842 -56.3392 -20.6398
696 9.25 12.5 1.4 4.57885 -51.2459 15.2889
697 9.5 12.5 1.4 4.79309 -58.012 157.361
698 9.75 12.5 1.4 5.01063 -51.6474 -150.307
699 10 12.5 1.4 5.23108 -61.2545 -25.4866
700 10.25 12.5 1.4 5.45408 -52.2151 -2.43024
701 10.5 12.5 1.4 5.67933 -67.4943 -104.425
702 10.75 12.5 1.4 5.90657 -53.9059 94.6677
703 11 12.5 1.4 6.13558 -60.2691 -142.954
704 11.25 12.5 1.4 6.36617 -55.4129 -172.916
705 11.5 12.5 1.4 6.59817 -54.4099 -107.247
706 11.75 12.5 1.4 6.83145 -60.0033 -125.803
707 12 12.5 1.4 7.06587 -62.1883 -130.301
708 12.25 12.5 1.4 7.30132 -58.2054 -39.4721
709 12.5 12.5 1.4 7.53771 -64.8941 37.3322
710 12.75 12.5 1.4 7.77495 -53.9996 -26.1987
711 13 12.5 1.4 8.01296 -65.8291 16.2392
712 13.25 12.5 1.4 8.25169 -69.1697 107.418
713 13.5 12.5 1.4 8.49106 -56.4987 15.9094
714 13.75 12.5 1.4 8.73103 -55.9559 32.9291
715 14 12.5 1.4 8.97155 -58.9962 148.546
716 14.25 12.5 1.4 9.21257 -56.333 -2.20341
717 14.5 12.5 1.4 9.45406 -57.431 -6.22874
718 14.75 12.5 1.4 9.69598 -60.8436 51.3619
719 15 12.5 1.4 9.9383 -70.9825 141.283
720 15.25 12.5 1.4 10.181 -65.6447 -90.6004
721 15.5 12.5 1.4 10.424 -57.6904 -11.3109
722 15.75 12.5 1.4 10.6674 -61.2965 1.65863
723 16 12.5 1.4 10.911 -61.2311 70.689
724 16.25 12.5 1.4 11.155 -61.8821 79.2497
725 16.5 12.5 1.4 11.3992 -66.4757 -76.1949
726 16.75 12.5 1.4 11.6436 -67.4361 -150.545
727 17 12.5 1.4 11.8883 -58.3207 29.3607
728 17.25 12.5 1.4 12.1332 -64.7629 24.2233
729 17.5 12.5 1.4 12.3783 -58.2461 49.3351
730 17.75 12.5 1.4 12.6236 -65.6182 114.25
731 18 12.5 1.4 12.8691 -61.1868 102.574
732 18.25 12.5 1.4 13.1147 -66.0182 74.5812
733 18.5 12.5 1.4 13.3605 -67.8339 -72.769
734 18.75 12.5 1.4 13.6065 -67.8621 57.3363
735 19 12.5 1.4 13.8526 -59.8183 31.1795
736 19.25 12.5 1.4 14.0988 -62.6121 -14.9859
737 19.5 12.5 1.4 14.3452 -61.6377 49.133
738 19.75 12.5 1.4 14.5917 -59.4691 38.5943
739 20 12.5 1.4 14.8383 -67.7708 7.74164
740 20.25 12.5 1.4 15.085 -58.9127 49.1474
741 20.5 12.5 1.4 15.3319 -67.1133 42.55
742 20.75 12.5 1.4 15.5788 -63.1892 -80.3942
743 21 12.5 1.4 15.8258 -61.0855 -82.6287
744 21.25 12.5 1.4 16.0729 -72.6045 -0.844685
745 21.5 12.5 1.4 16.3201 -68.4533 103.518
746 21.75 12.5 1.4 16.5674 -71.2034 166.007
747 22 12.5 1.4 16.8148 -64.8827 -90.3017
748 22.25 12.5 1.4 17.0623 -74.9274 -23.0205
749 22.5 12.5 1.4 17.3098 -70.9391 69.0939
750 22.75 12.5 1.4 17.5574 -75.7869 168.755
751 23 12.5 1.4 17.805 -74.8521 -78.4649
752 23.25 12.5 1.4 18.0527 -64.1915 -51.6398
753 23.5 12.5 1.4 18.3005 -63.4238 -31.3282
754 23.75 12.5 1.4 18.5484 -71.0501 33.0643
755 24 12.5 1.4 18.7963 -69.815 145.252
756 24.25 12.5 1.4 19.0442 -65.7453 -148.295
757 -7 12.75 1.4 12.5475 -67.1899 -131.384
758 -6.75 12.75 1.4 12.3014 -63.8596 -82.8848
759 -6.5 12.75 1.4 12.0553 -68.8331 -170.389
760 -6.25 12.75 1.4 11.8095 -79.2509 -143.783
761 -6 12.75 1.4 11.5638 -60.0886 -7.78227
762 -5.75 12.75 1.4 11.3183 -59.2927 174.901
763 -5.5 12.75 1.4 11.073 -71.2954 -148.185
764 -5.25 12.75 1.4 10.828 -67.408 63.6183
765 -5 12.75 1.4 10.5831 -59.7398 -6.78836
766 -4.75 12.75 1.4 10.3385 -64.9534 -158.257
767 -4.5 12.75 1.4 10.0942 -64.9508 159.448
768 -4.25 12.75 1.4 9.85018 -57.6683 25.0974
769 -4 12.75 1.4 9.60645 -63.8321 -24.3644
770 -3.75 12.75 1.4 9.36305 -62.1473 -41.5957
771 -3.5 12.75 1.4 9.12 -60.9505 154.936
772 -3.25 12.75 1.4 8.87734 -60.9507 16.4305
773 -3 12.75 1.4 8.6351 -61.2495 -57.2042
774 -2.75 12.75 1.4 8.39332 -59.6172 -103.358
775 -2.5 12.75 1.4 8.15203 -56.2579 -47.1816
776 -2.25 12.75 1.4 7.91128 -59.2397 -33.3256
777 -2 12.75 1.4 7.67112 -61.5216 -118.467
778 -1.75 12.75 1.4 7.43161 -53.9025 -76.3414
779 -1.5 12.75 1.4 7.19282 -57.7838 -109.291
780 -1.25 12.75 1.4 6.95481 -59.6378 -95.5483
781 -1 12.75 1.4 6.71768 -56.0289 -96.1903
782 -0.75 12.75 1.4 6.48151 -51.4481 -172.951
783 -0.5 12.75 1.4 6.24642 -57.8629 -128.371
784 -0.25 12.75 1.4 6.01253 -52.9349 161.541
785 -1.77636e-15 12.75 1.4 5.78 -67.0921 -152.06
786 0.25 12.75 1.4 5.54897 -57.4941 89.0408
787 0.5 12.75 1.4 5.31967 -63.8459 144.251
788 0.75 12.75 1.4 5.09232 -51.3426 -32.7385
789 1 12.75 1.4 4.86718 -53.3839 -27.7222
790 1.25 12.75 1.4 4.64459 -52.626 77.6833
791 1.5 12.75 1.4 4.42493 -70.7484 -40.9185
792 1.75 12.75 1.4 4.20866 -51.6266 -103.667
793 2 12.75 1.4 3.99632 -51.5542 175.769
794 2.25 12.75 1.4 3.78858 -56.444 65.5997
795 2.5 12.75 1.4 3.58624 -57.327 -62.5373
796 2.75 12.75 1.4 3.39027 -51.3716 153.548
797 3 12.75 1.4 3.20183 -53.3856 12.1585
798 3.25 12.75 1.4 3.02233 -46.9202 157.791
799 3.5 12.75 1.4 2.85346 -46.9622 -46.8836
800 3.75 12.75 1.4 2.69723 -49.691 64.5517
801 4 12.75 1.4 2.55594 -43.9245 88.4231
802 4.25 12.75 1.4 2.4322 -44.9138 115.669
803 4.5 12.75 1.4 2.32881 -49.798 62.8549
804 4.75 12.75 1.4 2.24859 -44.5032 -58.0459
805 5 12.75 1.4 2.19407 -42.7722 80.1919
806 5.25 12.75 1.4 2.16719 -43.9647 162.133
807 5.5 12.75 1.4 2.16898 -47.274 132.734
808 5.75 12.75 1.4 2.19938 -45.9624 -74.2212
809 6 12.75 1.4 2.25722 -48.4744 122.558
810 6.25 12.75 1.4 2.34048 -44.2556 -99.8219
811 6.5 12.75 1.4 2.44655 -42.1018 -5.01344
812 6.75 12.75 1.4 2.57262 -48.2713 15.9619
813 7 12.75 1.4 2.71591 -47.1548 -29.825
814 7.25 12.75 1.4 2.87384 -46.1262 -114.472
815 7.5 12.75 1.4 3.04413 -47.5736 143.791
816 7.75 12.75 1.4 3.22483 -46.9001 -1.65316
817 8 12.75 1.4 3.41428 -46.6876 -177.067
818 8.25 12.75 1.4 3.6111 -49.4607 5.53179
819 8.5 12.75 1.4 3.81416 -46.9493 113.379
820 8.75 12.75 1.4 4.02251 -53.4352 -114.583
821 9 12.75 1.4 4.23538 -58.8137 26.7835
822 9.25 12.75 1.4 4.4521 -51.3051 75.5463
823 9.5 12.75 1.4 4.67215 -55.1397 77.218
824 9.75 12.75 1.4 4.89507 -54.8591 -120.895
825 10 12.75 1.4 5.1205 -51.8535 -102.376
826 10.25 12.75 1.4 5.34811 -72.9467 17.5558
827 10.5 12.75 1.4 5.57764 -57.839 11.9259
828 10.75 12.75 1.4 5.80886 -59.3123 -26.9822
829 11 12.75 1.4 6.04158 -54.7283 104.77
830 11.25 12.75 1.4 6.27562 -64.7309 44.5259
831 11.5 12.75 1.4 6.51085 -53.6033 136.539
832 11.75 12.75 1.4 6.74715 -63.4408 159.547
833 12 12.75 1.4 6.98439 -58.132 146.838
834 12.25 12.75 1.4 7.2225 -56.5786 154.027
835 12.5 12.75 1.4 7.46139 -65.5337 -160.824
836 12.75 12.75 1.4 7.70098 -54.1367 -171.273
837 13 12.75 1.4 7.94121 -76.4956 -112.829
838 13.25 12.75 1.4 8.18203 -57.434 78.1596
839 13.5 12.75 1.4 8.42339 -55.4389 -160.76
840 13.75 12.75 1.4 8.66523 -67.7129 146.191
841 14 12.75 1.4 8.90752 -60.7921 119.196
842 14.25 12.75 1.4 9.15023 -57.5645 -154.562
843 14.5 12.75 1.4 9.39332 -63.2087 49.9881
844 14.75 12.75 1.4 9.63677 -62.3467 97.1556
845 15 12.75 1.4 9.88054 -62.034 -171.985
846 15.25 12.75 1.4 10.1246 -62.2313 -122.472
847 15.5 12.75 1.4 10.369 -71.5414 -91.0915
848 15.75 12.75 1.4 10.6136 -63.6859 28.091
849 16 12.75 1.4 10.8585 -71.4252 98.095
850 16.25 12.75 1.4 11.1036 -56.1813 -145.557
851 16.5 12.75 1.4 11.3489 -59.1238 -163.783
852 16.75 12.75 1.4 11.5944 -61.1269 -59.7192
853 17 12.75 1.4 11.8401 -63.3398 -137.819
854 17.25 12.75 1.4 12.0859 -64.6955 141.157
855 17.5 12.75 1.4 12.332 -58.2586 -160.501
856 17.75 12.75 1.4 12.5782 -60.199 -160.337
857 18 12.75 1.4 12.8245 -57.8714 -145.671
858 18.25 12.75 1.4 13.071 -57.4236 -150.126
859 18.5 12.75 1.4 13.3176 -67.8783 95.7744
860 18.75 12.75 1.4 13.5644 -69.4232 44.1179
861 19 12.75 1.4 13.8112 -61.3546 164.875
862 19.25 12.75 1.4 14.0582 -59.4621 107.59
863 19.5 12.75 1.4 14.3052 -58.7086 86.9597
864 19.75 12.75 1.4 14.5524 -61.8382 -165.384
865 20 12.75 1.4 14.7997 -71.9257 69.5364
866 20.25 12.75 1.4 15.047 -79.4076 165.042
867 20.5 12.75 1.4 15.2945 -61.8348 174.801
868 20.75 12.75 1.4 15.542 -65.9522 -124.588
869 21 12.75 1.4 15.7896 -63.5393 -53.7655
870 21.25 12.75 1.4 16.0373 -66.6009 21.949
871 21.5 12.75 1.4 16.285 -64.6901 86.4172
872 21.75 12.75 1.4 16.5329 -75.4769 118.66
873 22 12.75 1.4 16.7807 -77.0027 -50.1573
874 22.25 12.75 1.4 17.0287 -65.6981 16.5458
875 22.5 12.75 1.4 17.2767 -62.0654 66.1229
876 22.75 12.75 1.4 17.5247 -66.995 75.6417
877 23 12.75 1.4 17.7728 -71.5941 77.3131
878 23.25 12.75 1.4 18.021 -78.0319 5.00945
879 23.5 12.75 1.4 18.2692 -63.311 -4.71017
880 23.75 12.75 1.4 18.5175 -64.1293 11.3967
881 24 12.75 1.4 18.7658 -73.7851 100.896
882 24.25 12.75 1.4 19.0142 -69.3949 -151.277
883 -7 13 1.4 12.5068 -58.1301 -21.0061
884 -6.75 13 1.4 12.2598 -61.9674 76.9759
885 -6.5 13 1.4 12.013 -69.4892 66.0672
886 -6.25 13 1.4 11.7662 -59.1057 18.8185
887 -6 13 1.4 11.5196 -68.0652 118.228
888 -5.75 13 1.4 11.2732 -65.8518 100.555
889 -5.5 13 1.4 11.0269 -56.4333 96.9946
890 -5.25 13 1.4 10.7808 -59.5804 25.8184
891 -5 13 1.4 10.5348 -68.6909 -44.9071
892 -4.75 13 1.4 10.2891 -68.5506 -103.727
893 -4.5 13 1.4 10.0436 -60.5148 87.5297
894 -4.25 13 1.4 9.79828 -63.1088 48.8011
895 -4 13 1.4 9.55323 -56.2483 -49.7578
896 -3.75 13 1.4 9.30843 -55.1066 -156.953
897 -3.5 13 1.4 9.06392 -74.8817 -92.3866
898 -3.25 13 1.4 8.81972 -66.7273 171.721
899 -3 13 1.4 8.57585 -61.4769 -151.64
900 -2.75 13 1.4 8.33235 -61.1792 112.645
901 -2.5 13 1.4 8.08924 -68.3278 94.3525
902 -2.25 13 1.4 7.84657 -61.6021 -157.872
903 -2 13 1.4 7.60437 -61.0753 86.0288
904 -1.75 13 1.4 7.36269 -54.8483 108.574
905 -1.5 13 1.4 7.12158 -62.3632 147.205
906 -1.25 13 1.4 6.88111 -56.8767 59.8046
907 -1 13 1.4 6.64135 -54.9997 127.284
908 -0.75 13 1.4 6.40237 -52.3059 52.9319
909 -0.5 13 1.4 6.16426 -52.6276 115.551
910 -0.25 13 1.4 5.92713 -52.7768 33.6354
911 -1.77636e-15 13 1.4 5.6911 -58.2068 47.2577
912 0.25 13 1.4 5.45632 -60.8517 -29.7553
913 0.5 13 1.4 5.22295 -52.1113 -14.3524
914 0.75 13 1.4 4.99119 -57.0435 3.72356
915 1 13 1.4 4.76128 -56.0445 -126.568
916 1.25 13 1.4 4.53349 -53.5141 -151.755
917 1.5 13 1.4 4.30817 -54.2185 177.49
918 1.75 13 1.4 4.08572 -49.6848 -86.002
919 2 13 1.4 3.86663 -52.8322 -145.045
920 2.25 13 1.4 3.65153 -57.1615 78.8458
921 2.5 13 1.4 3.44114 -53.7125 19.3818
922 2.75 13 1.4 3.23639 -50.8763 -90.9274
923 3 13 1.4 3.03842 -48.3214 126.546
924 3.25 13 1.4 2.84864 -51.6284 -32.8081
925 3.5 13 1.4 2.66881 -50.3259 136.921
926 3.75 13 1.4 2.50106 -46.0775 -107.387
927 4 13 1.4 2.348 -44.7335 25.435
928 4.25 13 1.4 2.21266 -46.2377 56.5521
929 4.5 13 1.4 2.09849 -49.3219 -8.42046
930 4.75 13 1.4 2.00909 -44.1188 -63.3328
931 5 13 1.4 1.94788 -42.2949 89.3268
932 5.25 13 1.4 1.91755 -42.5013 177.227
933 5.5 13 1.4 1.91958 -46.2501 163.042
934 5.75 13 1.4 1.95386 -43.6431 -66.525
935 6 13 1.4 2.01875 -45.0554 109.118
936 6.25 13 1.4 2.11143 -42.939 -114.166
937 6.5 13 1.4 2.22843 -44.3937 -49.909
938 6.75 13 1.4 2.36615 -46.6698 -81.1478
939 7 13 1.4 2.5212 -47.6125 -131.461
940 7.25 13 1.4 2.69058 -48.243 107.597
941 7.5 13 1.4 2.87176 -46.0038 -51.5992
942 7.75 13 1.4 3.06264 -45.4789 123.315
943 8 13 1.4 3.26153 -47.6027 -60.5803
944 8.25 13 1.4 3.46704 -49.0817 81.4034
945 8.5 13 1.4 3.67806 -51.1424 174.519
946 8.75 13 1.4 3.8937 -49.4409 -93.306
947 9 13 1.4 4.11323 -75.2526 46.5803
948 9.25 13 1.4 4.33607 -53.1446 98.2292
949 9.5 13 1.4 4.56172 -55.6875 109.022
950 9.75 13 1.4 4.78978 -52.0652 145.536
951 10 13 1.4 5.01994 -65.9393 -67.6967
952 10.25 13 1.4 5.25191 -54.6794 -102.88
953 10.5 13 1.4 5.48547 -59.2799 -150.884
954 10.75 13 1.4 5.72041 -62.9637 -9.25975
955 11 13 1.4 5.95659 -51.8301 -45.3348
956 11.25 13 1.4 6.19384 -64.4336 9.28399
957 11.5 13 1.4 6.43207 -51.5184 -6.4177
958 11.75 13 1.4 6.67115 -60.9778 6.85425
959 12 13 1.4 6.91101 -60.6597 -7.85627
960 12.25 13 1.4 7.15156 -63.8079 -43.7165
961 12.5 13 1.4 7.39274 -63.9244 -45.4305
962 12.75 13 1.4 7.63449 -60.2171 38.7967
963 13 13 1.4 7.87675 -57.3199 -55.5843
964 13.25 13 1.4 8.11948 -61.9496 13.8192
965 13.5 13 1.4 8.36264 -62.7019 96.2266
966 13.75 13 1.4 8.60619 -58.281 -40.218
967 14 13 1.4 8.8501 -66.2178 30.7213
968 14.25 13 1.4 9.09434 -67.4452 80.1013
969 14.5 13 1.4 9.33889 -63.5269 -81.2026
970 14.75 13 1.4 9.58372 -59.7767 43.5085
971 15 13 1.4 9.8288 -59.4988 95.2144
972 15.25 13 1.4 10.0741 -69.6245 -116.693
973 15.5 13 1.4 10.3197 -57.1507 -19.8636
974 15.75 13 1.4 10.5655 -60.555 15.5585
975 16 13 1.4 10.8114 -64.2775 73.8149
976 16.25 13 1.4 11.0575 -64.7482 59.2509
977 16.5 13 1.4 11.3039 -55.0945 -52.8123
978 16.75 13 1.4 11.5503 -59.3791 -25.4104
979 17 13 1.4 11.7969 -54.8201 -1.21875
980 17.25 13 1.4 12.0437 -65.7133 -47.8842
981 17.5 13 1.4 12.2906 -61.0821 -35.1914
982 17.75 13 1.4 12.5376 -59.1994 -63.6609
983 18 13 1.4 12.7847 -67.6164 -121.677
984 18.25 13 1.4 13.0319 -60.6951 -33.4968
985 18.5 13 1.4 13.2793 -62.8618 -6.90195
986 18.75 13 1.4 13.5267 -60.3055 106.356
987 19 13 1.4 13.7742 -64.8904 81.0024
988 19.25 13 1.4 14.0219 -71.195 -62.1343
989 19.5 13 1.4 14.2696 -61.193 169.266
990 19.75 13 1.4 14.5173 -65.366 -104.467
991 20 13 1.4 14.7652 -60.5695 -85.8658
992 20.25 13 1.4 15.0131 -70.5688 -117.297
993 20.5 13 1.4 15.2611 -61.8469 -118.539
994 20.75 13 1.4 15.5092 -59.6241 -101.025
995 21 13 1.4 15.7573 -62.7803 -98.919
996 21.25 13 1.4 16.0055 -69.1929 -144.723
997 21.5 13 1.4 16.2537 -59.3012 144.998
998 21.75 13 1.4 16.502 -60.0361 169.516
999 22 13 1.4 16.7503 -62.7183 -179.492
1000 22.25 13 1.4 16.9987 -60.1954 136.66
1001 22.5 13 1.4 17.2471 -59.3398 111.911
1002 22.75 13 1.4 17.4956 -56.9227 118.49
1003 23 13 1.4 17.7441 -58.6712 133.175
1004 23.25 13 1.4 17.9927 -66.8682 93.8172
1005 23.5 13 1.4 18.2413 -70.7164 -22.1292
1006 23.75 13 1.4 18.4899 -63.2169 20.6696
1007 24 13 1.4 18.7386 -64.8977 50.3742
1008 24.25 13 1.4 18.9873 -68.7734 71.785
1009 -7 13.25 1.4 12.471 -60.9202 123.479
1010 -6.75 13.25 1.4 12.2233 -60.5931 174.838
1011 -6.5 13.25 1.4 11.9757 -59.0291 95.8753
1012 -6.25 13.25 1.4 11.7281 -65.0275 173.221
1013 -6 13.25 1.4 11.4807 -60.2738 -148.037
1014 -5.75 13.25 1.4 11.2334 -56.0557 179.504
1015 -5.5 13.25 1.4 10.9863 -58.7124 149.115
1016 -5.25 13.25 1.4 10.7392 -63.5321 161.921
1017 -5 13.25 1.4 10.4923 -56.5543 -108.588
1018 -4.75 13.25 1.4 10.2455 -58.1749 -165.906
1019 -4.5 13.25 1.4 9.99894 -64.9195 169.134
1020 -4.25 13.25 1.4 9.75252 -61.2675 -78.5015
1021 -4 13.25 1.4 9.50628 -56.0369 -114.142
1022 -3.75 13.25 1.4 9.26025 -59.5368 -97.3319
1023 -3.5 13.25 1.4 9.01443 -69.4052 39.9823
1024 -3.25 13.25 1.4 8.76885 -58.6118 -73.813
1025 -3 13.25 1.4 8.52353 -77.4484 45.7856
1026 -2.75 13.25 1.4 8.27849 -68.3322 54.8535
1027 -2.5 13.25 1.4 8.03375 -62.5315 15.5702
1028 -2.25 13.25 1.4 7.78935 -64.2113 57.0558
1029 -2 13.25 1.4 7.54531 -67.1486 -21.5379
1030 -1.75 13.25 1.4 7.30168 -57.6745 -54.8546
1031 -1.5 13.25 1.4 7.05849 -60.715 67.7538
1032 -1.25 13.25 1.4 6.81579 -54.428 -140.024
1033 -1 13.25 1.4 6.57364 -59.3973 -36.02
1034 -0.75 13.25 1.4 6.33211 -55.0338 -128.041
1035 -0.5 13.25 1.4 6.09125 -56.1953 -29.7334
1036 -0.25 13.25 1.4 5.85117 -58.4971 -133.347
1037 -1.77636e-15 13.25 1.4 5.61194 -56.5809 -115.05
1038 0.25 13.25 1.4 5.3737 -61.9636 -126.035
1039 0.5 13.25 1.4 5.13658 -51.9515 171.049
1040 0.75 13.25 1.4 4.90074 -50.3655 -152.059
1041 1 13.25 1.4 4.66637 -54.9222 -174.051
1042 1.25 13.25 1.4 4.43371 -58.8009 162.409
1043 1.5 13.25 1.4 4.20305 -55.3818 80.7973
1044 1.75 13.25 1.4 3.97472 -53.1449 43.9846
1045 2 13.25 1.4 3.74915 -59.3805 -15.6817
1046 2.25 13.25 1.4 3.52689 -55.4272 91.5645
1047 2.5 13.25 1.4 3.30858 -53.9155 61.3925
1048 2.75 13.25 1.4 3.09508 -48.3686 -39.9706
1049 3 13.25 1.4 2.88743 -49.6635 -148.645
1050 3.25 13.25 1.4 2.68702 -48.4889 87.3882
1051 3.5 13.25 1.4 2.49556 -47.5139 -66.1985
1052 3.75 13.25 1.4 2.3153 -46.9632 111.143
1053 4 13.25 1.4 2.14904 -50.5283 -144.149
1054 4.25 13.25 1.4 2.00029 -47.988 -50.3175
1055 4.5 13.25 1.4 1.87322 -44.3138 -58.5
1056 4.75 13.25 1.4 1.77249 -45 -84.8241
1057 5 13.25 1.4 1.70279 -42.0851 96.4567
1058 5.25 13.25 1.4 1.66802 -42.0053 -159.223
1059 5.5 13.25 1.4 1.67035 -46.4818 -175.809
1060 5.75 13.25 1.4 1.70963 -43.227 -63.9562
1061 6 13.25 1.4 1.78343 -43.3542 100.537
1062 6.25 13.25 1.4 1.8877 -44.1087 -144.775
1063 6.5 13.25 1.4 2.01772 -47.1069 -129.185
1064 6.75 13.25 1.4 2.16886 -44.997 174.031
1065 7 13.25 1.4 2.33704 -45.1516 49.1356
1066 7.25 13.25 1.4 2.51883 -43.3651 -86.7473
1067 7.5 13.25 1.4 2.71151 -46.4886 112.838
1068 7.75 13.25 1.4 2.91292 -51.2673 -92.5164
1069 8 13.25 1.4 3.12136 -51.5951 1.58381
1070 8.25 13.25 1.4 3.33551 -52.5308 124.433
1071 8.5 13.25 1.4 3.55435 -50.3191 -169.652
1072 8.75 13.25 1.4 3.77706 -50.7154 -91.8971
1073 9 13.25 1.4 4.003 -55.0006 -61.3659
1074 9.25 13.25 1.4 4.23164 -52.0341 -17.7075
1075 9.5 13.25 1.4 4.46257 -61.0376 44.764
1076 9.75 13.25 1.4 4.69546 -53.6577 106.593
1077 10 13.25 1.4 4.93002 -51.1423 124.953
1078 10.25 13.25 1.4 5.16603 -51.1982 99.7487
1079 10.5 13.25 1.4 5.4033 -66.9739 112.07
1080 10.75 13.25 1.4 5.64167 -59.8867 148.748
1081 11 13.25 1.4 5.881 -56.2763 141.164
1082 11.25 13.25 1.4 6.12119 -58.9759 -62.3249
1083 11.5 13.25 1.4 6.36214 -57.0621 -162.856
1084 11.75 13.25 1.4 6.60375 -62.6312 84.1433
1085 12 13.25 1.4 6.84597 -60.9451 167.591
1086 12.25 13.25 1.4 7.08873 -58.6278 140.345
1087 12.5 13.25 1.4 7.33198 -65.7986 -58.8901
1088 12.75 13.25 1.4 7.57566 -60.709 -90.4037
1089 13 13.25 1.4 7.81975 -59.664 147.248
1090 13.25 13.25 1.4 8.06419 -65.2051 -138.415
1091 13.5 13.25 1.4 8.30897 -65.7566 -115.11
1092 13.75 13.25 1.4 8.55405 -57.05 -167.002
1093 14 13.25 1.4 8.79941 -64.5773 -35.1367
1094 14.25 13.25 1.4 9.04502 -64.0295 157.746
1095 14.5 13.25 1.4 9.29086 -56.9948 -166.623
1096 14.75 13.25 1.4 9.53692 -71.3561 -137.756
1097 15 13.25 1.4 9.78318 -61.0409 142.683
1098 15.25 13.25 1.4 10.0296 -59.0415 -172.921
1099 15.5 13.25 1.4 10.2762 -68.0925 -148.08
1100 15.75 13.25 1.4 10.523 -59.554 102.364
1101 16 13.25 1.4 10.7699 -57.5829 115.864
1102 16.25 13.25 1.4 11.017 -62.737 153.86
1103 16.5 13.25 1.4 11.2642 -59.6115 -159.812
1104 16.75 13.25 1.4 11.5115 -64.7049 -25.3577
1105 17 13.25 1.4 11.759 -59.032 122.729
1106 17.25 13.25 1.4 12.0065 -63.5471 107.702
1107 17.5 13.25 1.4 12.2541 -67.8604 162.404
1108 17.75 13.25 1.4 12.5019 -62.726 138.076
1109 18 13.25 1.4 12.7497 -66.5801 37.595
1110 18.25 13.25 1.4 12.9976 -61.7689 49.1518
1111 18.5 13.25 1.4 13.2456 -55.7059 76.0676
1112 18.75 13.25 1.4 13.4936 -58.2224 75.649
1113 19 13.25 1.4 13.7417 -68.2585 54.4754
1114 19.25 13.25 1.4 13.9899 -59.9541 71.2029
1115 19.5 13.25 1.4 14.2382 -63.9542 -19.1443
1116 19.75 13.25 1.4 14.4865 -61.0994 -26.3778
1117 20 13.25 1.4 14.7349 -55.7198 -22.609
1118 20.25 13.25 1.4 14.9833 -57.1871 -10.3582
1119 20.5 13.25 1.4 15.2318 -61.8467 -51.4446
1120 20.75 13.25 1.4 15.4803 -59.1578 -70.2137
1121 21 13.25 1.4 15.7289 -58.1403 -70.782
1122 21.25 13.25 1.4 15.9775 -63.6701 -120.814
1123 21.5 13.25 1.4 16.2262 -58.4433 -147.903
1124 21.75 13.25 1.4 16.4749 -59.817 -138.576
1125 22 13.25 1.4 16.7236 -54.5116 -137.329
1126 22.25 13.25 1.4 16.9724 -57.7945 -126.154
1127 22.5 13.25 1.4 17.2212 -65.4234 -143.495
1128 22.75 13.25 1.4 17.47 -62.6552 146.705
1129 23 13.25 1.4 17.7189 -58.9763 151.406
1130 23.25 13.25 1.4 17.9678 -62.5894 157.529
1131 23.5 13.25 1.4 18.2168 -61.1597 2.41485
1132 23.75 13.25 1.4 18.4657 -58.8516 0.60247
1133 24 13.25 1.4 18.7147 -59.1978 14.8076
1134 24.25 13.25 1.4 18.9637 -67.6626 13.1315
1135 -7 13.5 1.4 12.4401 -58.3659 -88.7119
1136 -6.75 13.5 1.4 12.1918 -68.2519 139.276
1137 -6.5 13.5 1.4 11.9435 -66.744 -150.83
1138 -6.25 13.5 1.4 11.6953 -56.6521 -33.7996
1139 -6 13.5 1.4 11.4472 -62.2371 -46.1934
1140 -5.75 13.5 1.4 11.1991 -77.624 144.897
1141 -5.5 13.5 1.4 10.9512 -64.7954 34.5644
1142 -5.25 13.5 1.4 10.7033 -55.9626 -17.9324
1143 -5 13.5 1.4 10.4556 -68.8675 11.0939
1144 -4.75 13.5 1.4 10.2079 -74.0455 177.332
1145 -4.5 13.5 1.4 9.96038 -58.8314 28.1397
1146 -4.25 13.5 1.4 9.71298 -57.6005 -9.28437
1147 -4 13.5 1.4 9.46571 -67.9879 -10.6519
1148 -3.75 13.5 1.4 9.2186 -55.5469 56.0124
1149 -3.5 13.5 1.4 8.97164 -59.0631 -7.70598
1150 -3.25 13.5 1.4 8.72485 -57.74 87.9524
1151 -3 13.5 1.4 8.47826 -61.237 36.1368
1152 -2.75 13.5 1.4 8.23187 -56.0931 51.9552
1153 -2.5 13.5 1.4 7.9857 -69.114 121.466
1154 -2.25 13.5 1.4 7.73978 -61.0233 -17.064
1155 -2 13.5 1.4 7.49413 -60.3422 82.1673
1156 -1.75 13.5 1.4 7.24878 -58.1762 105.676
1157 -1.5 13.5 1.4 7.00375 -55.197 -80.1777
1158 -1.25 13.5 1.4 6.75909 -58.6321 112.786
1159 -1 13.5 1.4 6.51484 -53.6839 -175.667
1160 -0.75 13.5 1.4 6.27103 -65.0645 125.042
1161 -0.5 13.5 1.4 6.02774 -54.5516 174.024
1162 -0.25 13.5 1.4 5.78502 -62.1665 43.5058
1163 -1.77636e-15 13.5 1.4 5.54294 -59.2137 82.0834
1164 0.25 13.5 1.4 5.3016 -55.3849 123.251
1165 0.5 13.5 1.4 5.0611 -61.2014 46.126
1166 0.75 13.5 1.4 4.82157 -51.0905 47.3509
1167 1 13.5 1.4 4.58316 -51.0941 21.6828
1168 1.25 13.5 1.4 4.34604 -50.7028 51.7884
1169 1.5 13.5 1.4 4.11046 -49.8376 27.6477
1170 1.75 13.5 1.4 3.87668 -50.4556 7.94474
1171 2 13.5 1.4 3.64506 -52.6096 -19.0081
1172 2.25 13.5 1.4 3.41602 -52.7783 -59.955
1173 2.5 13.5 1.4 3.19014 -54.3544 -172.892
1174 2.75 13.5 1.4 2.96813 -47.4501 -39.0122
1175 3 13.5 1.4 2.75092 -50.3346 -96.7124
1176 3.25 13.5 1.4 2.53975 -47.2226 166.915
1177 3.5 13.5 1.4 2.33626 -47.5513 35.4522
1178 3.75 13.5 1.4 2.14264 -46.0419 -116.3
1179 4 13.5 1.4 1.9618 -43.7195 65.4788
1180 4.25 13.5 1.4 1.79763 -43.4225 179.393
1181 4.5 13.5 1.4 1.65506 -40.6517 -121.116
1182 4.75 13.5 1.4 1.54013 -44.2914 -125.712
1183 5 13.5 1.4 1.45938 -41.207 98.3398
1184 5.25 13.5 1.4 1.41865 -40.7734 -138.616
1185 5.5 13.5 1.4 1.42139 -45.1572 -141.04
1186 5.75 13.5 1.4 1.46736 -40.4997 -54.5994
1187 6 13.5 1.4 1.55271 -41.5056 84.7227
1188 6.25 13.5 1.4 1.67143 -44.4209 161.364
1189 6.5 13.5 1.4 1.817 -45.2475 109.716
1190 6.75 13.5 1.4 1.98349 -46.4872 27.6951
1191 7 13.5 1.4 2.16611 -43.2152 -108.813
1192 7.25 13.5 1.4 2.3611 -48.0959 78.1919
1193 7.5 13.5 1.4 2.56566 -46.5828 -145.966
1194 7.75 13.5 1.4 2.77766 -53.2927 3.84921
1195 8 13.5 1.4 2.99552 -55.3041 33.2519
1196 8.25 13.5 1.4 3.21806 -56.1885 134.732
1197 8.5 13.5 1.4 3.44437 -51.7796 169.64
1198 8.75 13.5 1.4 3.67376 -50.1595 -93.2019
1199 9 13.5 1.4 3.90567 -51.0352 -108.708
1200 9.25 13.5 1.4 4.13969 -52.3859 -70.522
1201 9.5 13.5 1.4 4.37548 -49.3485 -35.6629
1202 9.75 13.5 1.4 4.61277 -52.4393 -69.6163
1203 10 13.5 1.4 4.85133 -54.8646 -45.018
1204 10.25 13.5 1.4 5.09099 -64.8181 -76.142
1205 10.5 13.5 1.4 5.3316 -64.6455 165.331
1206 10.75 13.5 1.4 5.57304 -50.7712 -19.7206
1207 11 13.5 1.4 5.8152 -57.4192 -79.8178
1208 11.25 13.5 1.4 6.05799 -69.4756 165.941
1209 11.5 13.5 1.4 6.30135 -56.6621 6.01802
1210 11.75 13.5 1.4 6.54522 -63.6306 -145.031
1211 12 13.5 1.4 6.78952 -56.2912 49.4182
1212 12.25 13.5 1.4 7.03423 -55.3358 -21.169
1213 12.5 13.5 1.4 7.2793 -63.9779 16.7979
1214 12.75 13.5 1.4 7.52469 -60.0426 -9.11267
1215 13 13.5 1.4 7.77038 -57.6486 -17.5597
1216 13.25 13.5 1.4 8.01633 -58.7135 -44.1715
1217 13.5 13.5 1.4 8.26252 -59.7247 -48.405
1218 13.75 13.5 1.4 8.50894 -58.1531 -15.1347
1219 14 13.5 1.4 8.75556 -59.5838 -94.0929
1220 14.25 13.5 1.4 9.00237 -59.1992 -32.6706
1221 14.5 13.5 1.4 9.24935 -67.8314 -31.9861
1222 14.75 13.5 1.4 9.49648 -63.6065 -84.6633
1223 15 13.5 1.4 9.74377 -61.1774 -20.4595
1224 15.25 13.5 1.4 9.99118 -64.7807 168.24
1225 15.5 13.5 1.4 10.2387 -64.8743 -83.743
1226 15.75 13.5 1.4 10.4864 -58.3144 -4.98307
1227 16 13.5 1.4 10.7342 -67.197 29.9683
1228 16.25 13.5 1.4 10.982 -63.5304 -158.481
1229 16.5 13.5 1.4 11.23 -56.9045 -79.0733
1230 16.75 13.5 1.4 11.478 -64.4771 34.1718
1231 17 13.5 1.4 11.7262 -65.5038 -68.8867
1232 17.25 13.5 1.4 11.9744 -64.3065 -173.24
1233 17.5 13.5 1.4 12.2227 -61.3017 144.53
1234 17.75 13.5 1.4 12.471 -57.8717 -140.127
1235 18 13.5 1.4 12.7194 -65.9041 -110.862
1236 18.25 13.5 1.4 12.9679 -61.0118 81.0829
1237 18.5 13.5 1.4 13.2165 -62.6704 121.568
1238 18.75 13.5 1.4 13.4651 -60.5613 -176.611
1239 19 13.5 1.4 13.7137 -63.1207 111.276
1240 19.25 13.5 1.4 13.9624 -63.5253 -165.345
1241 19.5 13.5 1.4 14.2111 -64.5759 86.3473
1242 19.75 13.5 1.4 14.4599 -60.1899 44.8343
1243 20 13.5 1.4 14.7087 -56.3455 39.6275
1244 20.25 13.5 1.4 14.9576 -59.3942 68.8698
1245 20.5 13.5 1.4 15.2065 -63.6867 61.4396
1246 20.75 13.5 1.4 15.4554 -60.5324 -133.477
1247 21 13.5 1.4 15.7044 -69.5357 -112.662
1248 21.25 13.5 1.4 15.9534 -64.8315 -124.015
1249 21.5 13.5 1.4 16.2024 -68.7783 -161.175
1250 21.75 13.5 1.4 16.4515 -63.232 -174.948
1251 22 13.5 1.4 16.7006 -68.1955 -115.222
1252 22.25 13.5 1.4 16.9497 -66.1683 -92.9924
1253 22.5 13.5 1.4 17.1988 -62.2454 24.4018
1254 22.75 13.5 1.4 17.448 -59.226 95.932
1255 23 13.5 1.4 17.6972 -60.5734 109.383
1256 23.25 13.5 1.4 17.9464 -61.9872 134.393
1257 23.5 13.5 1.4 18.1956 -67.1734 147.735
1258 23.75 13.5 1.4 18.4449 -77.1912 -169.711
1259 24 13.5 1.4 18.6941 -72.0522 124.54
1260 24.25 13.5 1.4 18.9434 -81.881 132.49
1261 -7 13.75 1.4 12.4142 -69.01 133.185
1262 -6.75 13.75 1.4 12.1653 -68.5791 -46.9012
1263 -6.5 13.75 1.4 11.9165 -58.5562 21.7905
1264 -6.25 13.75 1.4 11.6677 -68.7841 38.0453
1265 -6 13.75 1.4 11.419 -60.6466 -109.21
1266 -5.75 13.75 1.4 11.1703 -63.8186 166.011
1267 -5.5 13.75 1.4 10.9217 -61.6855 117.607
1268 -5.25 13.75 1.4 10.6731 -61.5137 -153.23
1269 -5 13.75 1.4 10.4247 -53.803 -138.421
1270 -4.75 13.75 1.4 10.1763 -56.8864 129.534
1271 -4.5 13.75 1.4 9.92796 -59.8152 135.377
1272 -4.25 13.75 1.4 9.67973 -57.0464 -163.629
1273 -4 13.75 1.4 9.4316 -56.9895 155.252
1274 -3.75 13.75 1.4 9.18356 -64.0817 -141.308
1275 -3.5 13.75 1.4 8.93564 -60.2807 -155.464
1276 -3.25 13.75 1.4 8.68783 -59.3577 -140.511
1277 -3 13.75 1.4 8.44015 -73.594 -108.784
1278 -2.75 13.75 1.4 8.19261 -60.85 -141.78
1279 -2.5 13.75 1.4 7.94523 -67.0923 147.279
1280 -2.25 13.75 1.4 7.69802 -60.631 -155.506
1281 -2 13.75 1.4 7.45099 -60.5239 -162.476
1282 -1.75 13.75 1.4 7.20417 -57.0066 -94.1073
1283 -1.5 13.75 1.4 6.95757 -54.4744 170.847
1284 -1.25 13.75 1.4 6.71123 -53.3392 -110.938
1285 -1 13.75 1.4 6.46517 -72.9529 -50.8492
1286 -0.75 13.75 1.4 6.21942 -49.551 -130.19
1287 -0.5 13.75 1.4 5.97402 -56.6111 -108.312
1288 -0.25 13.75 1.4 5.72902 -55.2156 -105.12
1289 -1.77636e-15 13.75 1.4 5.48448 -58.0433 -76.8686
1290 0.25 13.75 1.4 5.24045 -51.9529 -53.6924
1291 0.5 13.75 1.4 4.997 -51.7327 -8.50154
1292 0.75 13.75 1.4 4.75424 -54.8794 -39.6905
1293 1 13.75 1.4 4.51227 -70.7355 -129.287
1294 1.25 13.75 1.4 4.27123 -57.8763 -90.703
1295 1.5 13.75 1.4 4.03127 -55.612 -97.3964
1296 1.75 13.75 1.4 3.79262 -58.164 -159.628
1297 2 13.75 1.4 3.55552 -50.2249 -151.292
1298 2.25 13.75 1.4 3.32032 -58.1878 178.485
1299 2.5 13.75 1.4 3.08744 -47.8932 151.828
1300 2.75 13.75 1.4 2.85746 -53.5249 104.163
1301 3 13.75 1.4 2.63113 -50.1133 71.419
1302 3.25 13.75 1.4 2.40949 -48.2777 -171.328
1303 3.5 13.75 1.4 2.19395 -46.6122 96.3029
1304 3.75 13.75 1.4 1.9865 -49.3814 -9.42753
1305 4 13.75 1.4 1.78996 -46.0677 -156.01
1306 4.25 13.75 1.4 1.60834 -45.0596 39.6012
1307 4.5 13.75 1.4 1.44725 -42.0896 167.708
1308 4.75 13.75 1.4 1.31427 -41.9322 179.073
1309 5 13.75 1.4 1.21864 -39.4508 85.8604
1310 5.25 13.75 1.4 1.16956 -40.237 -120.283
1311 5.5 13.75 1.4 1.17288 -47.9796 18.7055
1312 5.75 13.75 1.4 1.22818 -37.9833 -53.8967
1313 6 13.75 1.4 1.32898 -39.3751 54.0606
1314 6.25 13.75 1.4 1.46594 -43.7541 63.8154
1315 6.5 13.75 1.4 1.62996 -41.8539 -9.41872
1316 6.75 13.75 1.4 1.81371 -41.5892 -148.538
1317 7 13.75 1.4 2.01179 -43.0425 48.7121
1318 7.25 13.75 1.4 2.22038 -47.0865 176.2
1319 7.5 13.75 1.4 2.43678 -54.8961 -105.655
1320 7.75 13.75 1.4 2.65907 -48.6566 25.4553
1321 8 13.75 1.4 2.8859 -50.3929 4.63907
1322 8.25 13.75 1.4 3.11628 -52.0921 55.6337
1323 8.5 13.75 1.4 3.34948 -49.4148 86.1344
1324 8.75 13.75 1.4 3.58494 -54.4507 130.925
1325 9 13.75 1.4 3.82224 -50.8601 114.385
1326 9.25 13.75 1.4 4.06108 -56.7817 127.056
1327 9.5 13.75 1.4 4.30118 -59.7623 -150.797
1328 9.75 13.75 1.4 4.54234 -55.4482 121.354
1329 10 13.75 1.4 4.78442 -65.7146 34.6389
1330 10.25 13.75 1.4 5.02727 -59.4503 -116.842
1331 10.5 13.75 1.4 5.27079 -56.6475 -152.644
1332 10.75 13.75 1.4 5.51489 -51.8024 149.321
1333 11 13.75 1.4 5.7595 -56.9564 158.63
1334 11.25 13.75 1.4 6.00455 -62.9156 -143.52
1335 11.5 13.75 1.4 6.24999 -52.7744 154.78
1336 11.75 13.75 1.4 6.49578 -60.1706 92.6494
1337 12 13.75 1.4 6.74188 -57.9726 -140.282
1338 12.25 13.75 1.4 6.98825 -53.4633 139.096
1339 12.5 13.75 1.4 7.23488 -65.5455 133.608
1340 12.75 13.75 1.4 7.48173 -58.1016 131.231
1341 13 13.75 1.4 7.72878 -58.6374 -145.416
1342 13.25 13.75 1.4 7.97601 -59.6077 157.563
1343 13.5 13.75 1.4 8.22342 -59.2474 -178.549
1344 13.75 13.75 1.4 8.47097 -61.3094 171.981
1345 14 13.75 1.4 8.71867 -55.4308 135.147
1346 14.25 13.75 1.4 8.96649 -62.4206 162.799
1347 14.5 13.75 1.4 9.21443 -56.3475 90.7103
1348 14.75 13.75 1.4 9.46248 -56.1798 130.022
1349 15 13.75 1.4 9.71063 -62.1959 49.4337
1350 15.25 13.75 1.4 9.95887 -52.9453 64.7756
1351 15.5 13.75 1.4 10.2072 -68.1609 97.165
1352 15.75 13.75 1.4 10.4556 -57.2579 -14.5239
1353 16 13.75 1.4 10.7041 -54.8153 48.9837
1354 16.25 13.75 1.4 10.9526 -59.6389 -31.5041
1355 16.5 13.75 1.4 11.2012 -55.6471 -38.5064
1356 16.75 13.75 1.4 11.4499 -54.4348 -46.4871
1357 17 13.75 1.4 11.6987 -65.0781 -64.7147
1358 17.25 13.75 1.4 11.9474 -61.4012 -37.1052
1359 17.5 13.75 1.4 12.1963 -54.0765 -121.909
1360 17.75 13.75 1.4 12.4452 -56.985 -112.414
1361 18 13.75 1.4 12.6941 -67.2217 61.1142
1362 18.25 13.75 1.4 12.943 -61.4604 127.936
1363 18.5 13.75 1.4 13.192 -55.3655 145.748
1364 18.75 13.75 1.4 13.4411 -61.4713 96.9377
1365 19 13.75 1.4 13.6902 -61.2097 118.547
1366 19.25 13.75 1.4 13.9393 -61.7192 69.1578
1367 19.5 13.75 1.4 14.1884 -65.8652 50.0333
1368 19.75 13.75 1.4 14.4376 -58.668 24.6734
1369 20 13.75 1.4 14.6868 -59.5835 54.1875
1370 20.25 13.75 1.4 14.936 -62.2265 65.7486
1371 20.5 13.75 1.4 15.1853 -74.2143 -134.666
1372 20.75 13.75 1.4 15.4345 -64.954 -41.3204
1373 21 13.75 1.4 15.6838 -58.908 -56.278
1374 21.25 13.75 1.4 15.9332 -59.6927 -37.9381
1375 21.5 13.75 1.4 16.1825 -69.5894 -29.32
1376 21.75 13.75 1.4 16.4319 -81.5411 -152.744
1377 22 13.75 1.4 16.6812 -65.1691 -171.615
1378 22.25 13.75 1.4 16.9306 -68.4293 -119.933
1379 22.5 13.75 1.4 17.1801 -66.6637 172.032
1380 22.75 13.75 1.4 17.4295 -63.051 144.347
1381 23 13.75 1.4 17.6789 -59.5393 151.853
1382 23.25 13.75 1.4 17.9284 -60.3534 170.42
1383 23.5 13.75 1.4 18.1779 -61.2292 -169.599
1384 23.75 13.75 1.4 18.4274 -76.6923 -114.38
1385 24 13.75 1.4 18.6769 -65.8053 -35.2884
1386 24.25 13.75 1.4 18.9264 -60.5627 -16.8675
1387 -7 14 1.4 12.3932 -67.2363 -66.3648
1388 -6.75 14 1.4 12.1439 -62.9458 97.2707
1389 -6.5 14 1.4 11.8946 -78.1673 147.66
1390 -6.25 14 1.4 11.6454 -61.3492 -62.3444
1391 -6 14 1.4 11.3962 -75.6428 171.507
1392 -5.75 14 1.4 11.147 -61.1568 134.903
1393 -5.5 14 1.4 10.8979 -77.8611 -97.8197
1394 -5.25 14 1.4 10.6488 -60.309 -56.1261
1395 -5 14 1.4 10.3997 -64.7742 162.369
1396 -4.75 14 1.4 10.1507 -65.3285 95.6199
1397 -4.5 14 1.4 9.90175 -63.5896 -52.8937
1398 -4.25 14 1.4 9.65285 -63.7502 160.138
1399 -4 14 1.4 9.404 -69.02 31.6112
1400 -3.75 14 1.4 9.15522 -68.156 -58.3982
1401 -3.5 14 1.4 8.90651 -70.118 150.647
1402 -3.25 14 1.4 8.65787 -66.8734 -4.80093
1403 -3 14 1.4 8.40931 -73.6028 171.971
1404 -2.75 14 1.4 8.16083 -57.232 -27.7724
1405 -2.5 14 1.4 7.91246 -57.8085 -53.1329
1406 -2.25 14 1.4 7.66419 -60.8406 -25.5611
1407 -2 14 1.4 7.41603 -55.2639 -23.1223
1408 -1.75 14 1.4 7.16801 -63.0545 -23.2511
1409 -1.5 14 1.4 6.92012 -60.8067 -32.6197
1410 -1.25 14 1.4 6.6724 -56.7933 126.057
1411 -1 14 1.4 6.42485 -63.1861 -44.3187
1412 -0.75 14 1.4 6.17749 -52.3905 6.49928
1413 -0.5 14 1.4 5.93036 -57.3563 74.2099
1414 -0.25 14 1.4 5.68348 -59.44 37.4372
1415 -1.77636e-15 14 1.4 5.43689 -66.122 -16.9702
1416 0.25 14 1.4 5.19062 -69.4387 111.548
1417 0.5 14 1.4 4.94473 -64.4304 102.972
1418 0.75 14 1.4 4.69927 -57.4441 -144.874
1419 1 14 1.4 4.45431 -53.4724 158.517
1420 1.25 14 1.4 4.20995 -52.5175 118.044
1421 1.5 14 1.4 3.96629 -55.0399 113.776
1422 1.75 14 1.4 3.72347 -64.4763 106.286
1423 2 14 1.4 3.48167 -52.9863 120.805
1424 2.25 14 1.4 3.24111 -55.3265 38.0124
1425 2.5 14 1.4 3.0021 -51.7031 72.2125
1426 2.75 14 1.4 2.76502 -50.3136 6.00635
1427 3 14 1.4 2.53044 -47.7717 16.5329
1428 3.25 14 1.4 2.29911 -51.3316 -37.8533
1429 3.5 14 1.4 2.07212 -48.2259 -60.955
1430 3.75 14 1.4 1.85107 -47.477 15.9583
1431 4 14 1.4 1.63837 -45.43 -63.1441
1432 4.25 14 1.4 1.43772 -44.2022 175.966
1433 4.5 14 1.4 1.25491 -42.5966 -28.2919
1434 4.75 14 1.4 1.0989 -40.2197 93.2378
1435 5 14 1.4 0.982532 -38.3108 69.4704
1436 5.25 14 1.4 0.92095 -37.8155 -103.36
1437 5.5 14 1.4 0.925164 -36.5358 66.6959
1438 5.75 14 1.4 0.994338 -35.8645 -62.8894
1439 6 14 1.4 1.11646 -39.7553 3.08671
1440 6.25 14 1.4 1.27643 -39.6815 -56.963
1441 6.5 14 1.4 1.46186 -39.5615 -160.157
1442 6.75 14 1.4 1.66428 -47.7754 4.68403
1443 7 14 1.4 1.87819 -46.4233 118.276
1444 7.25 14 1.4 2.10009 -46.226 -155.756
1445 7.5 14 1.4 2.3277 -48.3193 -129.05
1446 7.75 14 1.4 2.55948 -52.5993 -109.71
1447 8 14 1.4 2.79441 -53.2392 -122.424
1448 8.25 14 1.4 3.03175 -60.4437 -117.245
1449 8.5 14 1.4 3.27098 -55.406 48.3746
1450 8.75 14 1.4 3.5117 -54.3142 -47.4132
1451 9 14 1.4 3.75364 -57.9599 1.5326
1452 9.25 14 1.4 3.99658 -58.4598 -13.0342
1453 9.5 14 1.4 4.24033 -64.1793 -27.557
1454 9.75 14 1.4 4.48477 -60.7093 -20.4482
1455 10 14 1.4 4.72979 -63.1211 55.5071
1456 10.25 14 1.4 4.97531 -55.7871 -9.47693
1457 10.5 14 1.4 5.22126 -54.5589 -20.0938
1458 10.75 14 1.4 5.46757 -54.1637 -78.5838
1459 11 14 1.4 5.7142 -60.0826 -73.5759
1460 11.25 14 1.4 5.96111 -57.8471 -6.94085
1461 11.5 14 1.4 6.20827 -60.2286 -33.3802
1462 11.75 14 1.4 6.45565 -57.4686 -124.244
1463 12 14 1.4 6.70322 -59.1055 98.0959
1464 12.25 14 1.4 6.95097 -64.3912 -46.5932
1465 12.5 14 1.4 7.19887 -60.4077 -81.0536
1466 12.75 14 1.4 7.44691 -59.4116 -57.1698
1467 13 14 1.4 7.69508 -68.9991 105.708
1468 13.25 14 1.4 7.94337 -64.4551 -72.0326
1469 13.5 14 1.4 8.19176 -65.4326 -157.51
1470 13.75 14 1.4 8.44024 -74.8183 -68.5138
1471 14 14 1.4 8.68881 -74.1156 -92.2925
1472 14.25 14 1.4 8.93746 -65.1623 174.022
1473 14.5 14 1.4 9.18618 -65.5456 -94.2921
1474 14.75 14 1.4 9.43498 -62.5811 132.885
1475 15 14 1.4 9.68383 -62.9553 -165.498
1476 15.25 14 1.4 9.93274 -58.2664 -17.1278
1477 15.5 14 1.4 10.1817 -64.1789 88.5803
1478 15.75 14 1.4 10.4307 -77.175 -34.1421
1479 16 14 1.4 10.6798 -56.9645 -58.2334
1480 16.25 14 1.4 10.9289 -67.8694 46.0189
1481 16.5 14 1.4 11.178 -60.5018 -138.432
1482 16.75 14 1.4 11.4272 -63.6179 -34.7708
1483 17 14 1.4 11.6764 -58.7667 -18.4341
1484 17.25 14 1.4 11.9257 -58.1985 161.22
1485 17.5 14 1.4 12.1749 -65.544 -160.933
1486 17.75 14 1.4 12.4243 -58.3643 -68.1489
1487 18 14 1.4 12.6736 -69.0418 -121.347
1488 18.25 14 1.4 12.923 -58.6643 116.796
1489 18.5 14 1.4 13.1723 -77.1049 -135.121
1490 18.75 14 1.4 13.4217 -64.3576 167.007
1491 19 14 1.4 13.6712 -72.2014 148.562
1492 19.25 14 1.4 13.9206 -68.7035 73.8648
1493 19.5 14 1.4 14.1701 -64.7063 12.8464
1494 19.75 14 1.4 14.4196 -65.3292 13.1671
1495 20 14 1.4 14.6691 -67.1522 75.7374
1496 20.25 14 1.4 14.9186 -64.6493 135.121
1497 20.5 14 1.4 15.1681 -70.9868 -104.776
1498 20.75 14 1.4 15.4177 -65.9813 -84.7679
1499 21 14 1.4 15.6673 -62.7348 -64.453
1500 21.25 14 1.4 15.9168 -62.9181 -14.9022
1501 21.5 14 1.4 16.1664 -65.4647 38.6202
1502 21.75 14 1.4 16.416 -63.935 121.296
1503 22 14 1.4 16.6657 -70.9508 151.503
1504 22.25 14 1.4 16.9153 -62.2 -142.618
1505 22.5 14 1.4 17.1649 -66.5329 -123.133
1506 22.75 14 1.4 17.4146 -69.5687 -139.653
1507 23 14 1.4 17.6642 -65.8633 -40.3539
1508 23.25 14 1.4 17.9139 -73.0026 -64.5573
1509 23.5 14 1.4 18.1636 -67.4951 113.881
1510 23.75 14 1.4 18.4133 -70.5105 120.92
1511 24 14 1.4 18.663 -72.4324 49.7613
1512 24.25 14 1.4 18.9127 -77.3329 47.7014
1513 -7 14.25 1.4 12.3773 -58.383 146.75
1514 -6.75 14.25 1.4 12.1277 -65.6492 29.0122
1515 -6.5 14.25 1.4 11.878 -60.2211 24.0292
1516 -6.25 14.25 1.4 11.6284 -65.7076 77.7116
1517 -6 14.25 1.4 11.3789 -63.1892 175.848
1518 -5.75 14.25 1.4 11.1293 -60.8541 102.893
1519 -5.5 14.25 1.4 10.8797 -65.7171 -35.9253
1520 -5.25 14.25 1.4 10.6302 -58.2458 -155.27
1521 -5 14.25 1.4 10.3807 -65.8268 176.295
1522 -4.75 14.25 1.4 10.1313 -71.7502 -139.871
1523 -4.5 14.25 1.4 9.8818 -57.4586 -119.267
1524 -4.25 14.25 1.4 9.63238 -72.3913 -64.8534
1525 -4 14.25 1.4 9.383 -61.838 -24.8451
1526 -3.75 14.25 1.4 9.13364 -72.2935 95.7879
1527 -3.5 14.25 1.4 8.88432 -58.7321 -10.7519
1528 -3.25 14.25 1.4 8.63504 -61.3635 -14.4613
1529 -3 14.25 1.4 8.3858 -59.184 0.443998
1530 -2.75 14.25 1.4 8.13661 -55.7253 23.4377
1531 -2.5 14.25 1.4 7.88748 -61.4876 15.2381
1532 -2.25 14.25 1.4 7.63839 -57.6098 43.4466
1533 -2 14.25 1.4 7.38937 -62.5145 -169.868
1534 -1.75 14.25 1.4 7.14042 -65.6384 43.2447
1535 -1.5 14.25 1.4 6.89154 -56.1171 173.675
1536 -1.25 14.25 1.4 6.64275 -62.9693 -107.943
1537 -1 14.25 1.4 6.39406 -58.7443 116.915
1538 -0.75 14.25 1.4 6.14546 -54.7648 -174.983
1539 -0.5 14.25 1.4 5.89699 -57.1966 -142.198
1540 -0.25 14.25 1.4 5.64865 -56.3535 150.159
1541 -1.77636e-15 14.25 1.4 5.40047 -53.4934 143.493
1542 0.25 14.25 1.4 5.15246 -52.747 -175.584
1543 0.5 14.25 1.4 4.90465 -53.7332 -158.42
1544 0.75 14.25 1.4 4.65708 -52.0623 -121.305
1545 1 14.25 1.4 4.40978 -54.9047 -151.456
1546 1.25 14.25 1.4 4.16281 -53.6631 -88.6101
1547 1.5 14.25 1.4 3.91622 -52.1049 -105.614
1548 1.75 14.25 1.4 3.67009 -53.5219 -95.019
1549 2 14.25 1.4 3.42452 -57.8681 -145.593
1550 2.25 14.25 1.4 3.17964 -48.6892 -64.6468
1551 2.5 14.25 1.4 2.93562 -51.8977 -93.35
1552 2.75 14.25 1.4 2.6927 -47.929 -83.1481
1553 3 14.25 1.4 2.45121 -53.1882 -87.2834
1554 3.25 14.25 1.4 2.21161 -47.351 -127.586
1555 3.5 14.25 1.4 1.97458 -48.2495 -151.644
1556 3.75 14.25 1.4 1.7412 -46.6485 173.829
1557 4 14.25 1.4 1.51312 -44.1863 123.743
1558 4.25 14.25 1.4 1.29318 -46.1744 -145.178
1559 4.5 14.25 1.4 1.08632 -39.2204 143.397
1560 4.75 14.25 1.4 0.901598 -40.1246 -30.1813
1561 5 14.25 1.4 0.755419 -35.163 30.9023
1562 5.25 14.25 1.4 0.673378 -51.9545 54.9464
1563 5.5 14.25 1.4 0.679129 -33.1079 87.5454
1564 5.75 14.25 1.4 0.770711 -35.7919 -68.937
1565 6 14.25 1.4 0.922917 -38.1892 -71.148
1566 6.25 14.25 1.4 1.11111 -40.2201 164.505
1567 6.5 14.25 1.4 1.31998 -43.2342 -37.875
1568 6.75 14.25 1.4 1.54114 -45.3453 64.9601
1569 7 14.25 1.4 1.77 -44.8648 87.643
1570 7.25 14.25 1.4 2.00391 -49.2314 138.29
1571 7.5 14.25 1.4 2.24131 -46.0201 149.112
1572 7.75 14.25 1.4 2.48118 -48.3041 160.303
1573 8 14.25 1.4 2.72287 -53.1829 -179.516
1574 8.25 14.25 1.4 2.96594 -57.118 -171.56
1575 8.5 14.25 1.4 3.21007 -50.9614 114.593
1576 8.75 14.25 1.4 3.45505 -55.8012 -175.573
1577 9 14.25 1.4 3.70069 -48.8191 126.075
1578 9.25 14.25 1.4 3.94689 -50.8549 140.339
1579 9.5 14.25 1.4 4.19353 -53.1561 175.437
1580 9.75 14.25 1.4 4.44055 -59.785 169.499
1581 10 14.25 1.4 4.68788 -51.4732 169.545
1582 10.25 14.25 1.4 4.93549 -59.0239 159.85
1583 10.5 14.25 1.4 5.18332 -61.9974 114.598
1584 10.75 14.25 1.4 5.43135 -54.4365 46.7086
1585 11 14.25 1.4 5.67956 -60.8936 9.77451
1586 11.25 14.25 1.4 5.92791 -59.8644 47.8246
1587 11.5 14.25 1.4 6.1764 -54.411 68.8712
1588 11.75 14.25 1.4 6.42501 -51.5326 42.4628
1589 12 14.25 1.4 6.67372 -55.0709 3.43753
1590 12.25 14.25 1.4 6.92252 -58.793 13.3431
1591 12.5 14.25 1.4 7.1714 -55.7792 17.5346
1592 12.75 14.25 1.4 7.42037 -62.2946 -166.175
1593 13 14.25 1.4 7.66939 -57.9842 -120.396
1594 13.25 14.25 1.4 7.91848 -57.1511 -154.597
1595 13.5 14.25 1.4 8.16763 -72.5892 -172.666
1596 13.75 14.25 1.4 8.41682 -58.5618 178.22
1597 14 14.25 1.4 8.66607 -60.2821 155.004
1598 14.25 14.25 1.4 8.91535 -58.4171 140.872
1599 14.5 14.25 1.4 9.16468 -64.8499 125.466
1600 14.75 14.25 1.4 9.41404 -61.5555 28.0713
1601 15 14.25 1.4 9.66343 -62.5702 133.956
1602 15.25 14.25 1.4 9.91285 -66.5386 -154.711
1603 15.5 14.25 1.4 10.1623 -57.5944 49.2034
1604 15.75 14.25 1.4 10.4118 -58.6757 -176.755
1605 16 14.25 1.4 10.6613 -56.1293 -28.7373
1606 16.25 14.25 1.4 10.9108 -62.8423 8.16715
1607 16.5 14.25 1.4 11.1604 -63.2378 150.342
1608 16.75 14.25 1.4 11.4099 -55.6528 -80.3116
1609 17 14.25 1.4 11.6595 -59.7244 18.5917
1610 17.25 14.25 1.4 11.9091 -65.6814 133.131
1611 17.5 14.25 1.4 12.1587 -58.4656 -76.0891
1612 17.75 14.25 1.4 12.4084 -65.9649 -46.886
1613 18 14.25 1.4 12.658 -66.1466 3.51432
1614 18.25 14.25 1.4 12.9077 -71.5926 -118.878
1615 18.5 14.25 1.4 13.1573 -72.9813 -155.316
1616 18.75 14.25 1.4 13.407 -69.1717 -112.021
1617 19 14.25 1.4 13.6567 -77.3249 -48.1325
1618 19.25 14.25 1.4 13.9064 -71.0347 134.192
1619 19.5 14.25 1.4 14.1562 -67.2817 76.734
1620 19.75 14.25 1.4 14.4059 -63.4122 63.9706
1621 20 14.25 1.4 14.6556 -63.7657 75.0052
1622 20.25 14.25 1.4 14.9054 -78.4272 46.3011
1623 20.5 14.25 1.4 15.1551 -72.5059 13.9466
1624 20.75 14.25 1.4 15.4049 -71.9648 -60.3674
1625 21 14.25 1.4 15.6547 -70.1748 -41.7903
1626 21.25 14.25 1.4 15.9044 -69.3524 19.3397
1627 21.5 14.25 1.4 16.1542 -65.8811 38.3077
1628 21.75 14.25 1.4 16.404 -68.1036 136.636
1629 22 14.25 1.4 16.6538 -64.076 -173.311
1630 22.25 14.25 1.4 16.9036 -65.2905 -152.959
1631 22.5 14.25 1.4 17.1534 -61.5458 -112.75
1632 22.75 14.25 1.4 17.4032 -69.2334 -95.1755
1633 23 14.25 1.4 17.6531 -68.078 -25.8577
1634 23.25 14.25 1.4 17.9029 -63.6948 32.4543
1635 23.5 14.25 1.4 18.1527 -60.6453 79.4056
1636 23.75 14.25 1.4 18.4026 -60.3785 111.251
1637 24 14.25 1.4 18.6524 -60.4374 140.79
1638 24.25 14.25 1.4 18.9022 -73.3706 153.044
