#Rx
# X(m), Y(m), Z(m), Distance(m), Power (dBm) Phase (deg)
1 -7 11.25 1.4 4.95602 -55.1406 158.115
2 -6.75 11.25 1.4 4.94937 -52.5476 159.975
3 -6.5 11.25 1.4 4.95533 -57.5864 165.807
4 -6.25 11.25 1.4 4.97387 -47.5113 86.9622
5 -6 11.25 1.4 5.00485 -67.2705 -81.4718
6 -5.75 11.25 1.4 5.04803 -49.4785 -98.471
7 -5.5 11.25 1.4 5.1031 -47.6863 10.756
8 -5.25 11.25 1.4 5.1697 -59.6634 135.207
9 -5 11.25 1.4 5.24736 -52.0063 -14.8869
10 -4.75 11.25 1.4 5.33563 -44.8204 67.3505
11 -4.5 11.25 1.4 5.43397 -48.9419 89.4716
12 -4.25 11.25 1.4 5.54185 -72.1818 -150.824
13 -4 11.25 1.4 5.65873 -56.9488 -126.66
14 -3.75 11.25 1.4 5.78405 -48.1834 167.636
15 -3.5 11.25 1.4 5.91729 -45.2929 146.156
16 -3.25 11.25 1.4 6.05793 -46.2253 98.7679
17 -3 11.25 1.4 6.20545 -51.9933 39.4043
18 -2.75 11.25 1.4 6.35937 -52.5401 -18.0969
19 -2.5 11.25 1.4 6.51926 -47.6614 -142.132
20 -2.25 11.25 1.4 6.68467 -50.4851 53.6324
21 -2 11.25 1.4 6.85521 -53.7934 -133.636
22 -1.75 11.25 1.4 7.0305 -51.4159 11.2743
23 -1.5 11.25 1.4 7.21021 -50.3048 -177.756
24 -1.25 11.25 1.4 7.394 -53.8285 63.943
25 -1 11.25 1.4 7.58157 -57.9065 -49.8717
26 -0.75 11.25 1.4 7.77267 -51.1626 110.3
27 -0.5 11.25 1.4 7.96702 -49.9079 -117.877
28 -0.25 11.25 1.4 8.16441 -51.3544 8.53288
29 -1.77636e-15 11.25 1.4 8.36461 -47.5985 126.165
30 0.25 11.25 1.4 8.56742 -47.4732 -121.693
31 0.5 11.25 1.4 8.77267 -46.9872 -3.33228
32 0.75 11.25 1.4 8.98019 -51.8449 116.755
33 1 11.25 1.4 9.18983 -48.9288 -125.955
34 1.25 11.25 1.4 9.40144 -50.9789 -54.3321
35 1.5 11.25 1.4 9.61489 -54.2875 132.243
36 1.75 11.25 1.4 9.83007 -62.5367 -159.076
37 2 11.25 1.4 10.0469 -61.7148 -17.3106
38 2.25 11.25 1.4 10.2652 -62.1463 -3.22301
39 2.5 11.25 1.4 10.4849 -57.5591 -86.9815
40 2.75 11.25 1.4 10.7059 -74.4016 85.528
41 3 11.25 1.4 10.9282 -55.8705 59.9786
42 3.25 11.25 1.4 11.1517 -55.6463 46.6594
43 3.5 11.25 1.4 11.3762 -69.0146 59.0903
44 3.75 11.25 1.4 11.6019 -58.1044 179.761
45 4 11.25 1.4 11.8284 -57.344 -128.023
46 4.25 11.25 1.4 12.056 -55.3731 -87.6138
47 4.5 11.25 1.4 12.2843 -55.7699 -23.4828
48 4.75 11.25 1.4 12.5136 -55.7034 -20.8326
49 5 11.25 1.4 12.7436 -58.7556 55.4852
50 5.25 11.25 1.4 12.9743 -57.2213 80.8954
51 5.5 11.25 1.4 13.2057 -54.5256 96.3874
52 5.75 11.25 1.4 13.4378 -70.0015 -12.4062
53 6 11.25 1.4 13.6706 -72.4107 175.662
54 6.25 11.25 1.4 13.9039 -63.5717 19.1762
55 6.5 11.25 1.4 14.1378 -72.7491 -4.37718
56 6.75 11.25 1.4 14.3723 -73.8298 27.793
57 7 11.25 1.4 14.6072 -61.8419 103.081
58 7.25 11.25 1.4 14.8427 -62.5157 85.9012
59 7.5 11.25 1.4 15.0786 -69.0391 92.5004
60 7.75 11.25 1.4 15.315 -66.2311 -72.8996
61 8 11.25 1.4 15.5518 -68.92 -100.509
62 8.25 11.25 1.4 15.789 -68.846 11.2458
63 8.5 11.25 1.4 16.0266 -58.4589 7.56029
64 8.75 11.25 1.4 16.2645 -61.2431 39.4381
65 9 11.25 1.4 16.5028 -65.0328 1.67366
66 9.25 11.25 1.4 16.7415 -57.8863 42.1309
67 9.5 11.25 1.4 16.9805 -56.9419 88.3648
68 9.75 11.25 1.4 17.2198 -70.7429 -106.866
69 10 11.25 1.4 17.4594 -60.8911 25.1395
70 10.25 11.25 1.4 17.6993 -60.9164 147.299
71 10.5 11.25 1.4 17.9394 -58.698 -133.356
72 10.75 11.25 1.4 18.1799 -59.825 -40.3878
73 11 11.25 1.4 18.4205 -63.8069 125.07
74 11.25 11.25 1.4 18.6615 -55.616 -135.635
75 11.5 11.25 1.4 18.9026 -55.7908 -37.8111
76 11.75 11.25 1.4 19.144 -64.8283 39.6762
77 12 11.25 1.4 19.3856 -62.4792 -108.382
78 12.25 11.25 1.4 19.6275 -60.3742 -43.6521
79 12.5 11.25 1.4 19.8695 -59.4879 33.5504
80 12.75 11.25 1.4 20.1117 -69.2364 77.2143
81 13 11.25 1.4 20.3541 -65.7517 -133.302
82 13.25 11.25 1.4 20.5967 -61.3304 -110.03
83 13.5 11.25 1.4 20.8394 -71.2113 141.63
84 13.75 11.25 1.4 21.0824 -63.2655 172.979
85 14 11.25 1.4 21.3255 -63.0216 -125.378
86 14.25 11.25 1.4 21.5687 -66.9806 -173.507
87 14.5 11.25 1.4 21.8121 -68.5893 -153.104
88 14.75 11.25 1.4 22.0557 -60.0099 -140.877
89 15 11.25 1.4 22.2994 -66.0586 -164.787
90 15.25 11.25 1.4 22.5432 -75.4986 -117.1
91 15.5 11.25 1.4 22.7872 -62.3892 -160.667
92 15.75 11.25 1.4 23.0313 -65.6219 -158.161
93 16 11.25 1.4 23.2755 -71.1121 -143.272
94 16.25 11.25 1.4 23.5198 -68.39 130.974
95 16.5 11.25 1.4 23.7643 -70.1975 113.919
96 16.75 11.25 1.4 24.0089 -64.9872 174.779
97 17 11.25 1.4 24.2535 -68.2033 162.105
98 17.25 11.25 1.4 24.4983 -76.9101 131.36
99 17.5 11.25 1.4 24.7432 -65.7372 124.425
100 17.75 11.25 1.4 24.9882 -64.7451 90.2525
101 18 11.25 1.4 25.2333 -62.8611 102.669
102 18.25 11.25 1.4 25.4785 -65.8386 146.226
103 18.5 11.25 1.4 25.7238 -66.4556 161.588
104 18.75 11.25 1.4 25.9692 -70.8288 148.379
105 19 11.25 1.4 26.2146 -69.2484 113.112
106 19.25 11.25 1.4 26.4602 -68.744 127.526
107 19.5 11.25 1.4 26.7058 -66.3069 93.1493
108 19.75 11.25 1.4 26.9515 -63.3963 109.331
109 20 11.25 1.4 27.1973 -65.2975 132.47
110 20.25 11.25 1.4 27.4432 -66.5307 128.426
111 20.5 11.25 1.4 27.6891 -65.2909 140.048
112 20.75 11.25 1.4 27.9351 -71.0156 117.657
113 21 11.25 1.4 28.1812 -70.4127 22.8302
114 21.25 11.25 1.4 28.4273 -62.4458 53.2668
115 21.5 11.25 1.4 28.6736 -64.3741 66.8568
116 21.75 11.25 1.4 28.9198 -65.0895 54.3566
117 22 11.25 1.4 29.1662 -64.2724 57.4873
118 22.25 11.25 1.4 29.4126 -69.5243 102.78
119 22.5 11.25 1.4 29.6591 -75.6594 -47.7674
120 22.75 11.25 1.4 29.9056 -67.2617 -77.1165
121 23 11.25 1.4 30.1522 -72.5242 -20.1916
122 23.25 11.25 1.4 30.3988 -76.3239 -57.3495
123 23.5 11.25 1.4 30.6455 -75.6453 -85.4447
124 23.75 11.25 1.4 30.8922 -72.0533 -65.3674
125 24 11.25 1.4 31.139 -81.2634 -175.85
126 24.25 11.25 1.4 31.3859 -70.7697 -110.712
127 -7 11.5 1.4 4.70637 -50.1194 160.251
128 -6.75 11.5 1.4 4.69937 -48.4771 155.152
129 -6.5 11.5 1.4 4.70565 -51.5923 164.931
130 -6.25 11.5 1.4 4.72517 -44.2157 87.5192
131 -6 11.5 1.4 4.75776 -71.387 112.44
132 -5.75 11.5 1.4 4.80316 -44.8285 -103.484
133 -5.5 11.5 1.4 4.86102 -44.4174 -3.11873
134 -5.25 11.5 1.4 4.93088 -57.8135 105.127
135 -5 11.5 1.4 5.01225 -52.2871 -22.169
136 -4.75 11.5 1.4 5.10458 -43.8143 24.3767
137 -4.5 11.5 1.4 5.20729 -51.3211 93.3463
138 -4.25 11.5 1.4 5.31977 -47.1078 151.615
139 -4 11.5 1.4 5.44142 -48.818 117.753
140 -3.75 11.5 1.4 5.57163 -53.4068 104.193
141 -3.5 11.5 1.4 5.70983 -52.7824 20.4859
142 -3.25 11.5 1.4 5.85545 -53.3118 -62.0416
143 -3 11.5 1.4 6.00794 -54.9119 -129.901
144 -2.75 11.5 1.4 6.1668 -45.7127 154.483
145 -2.5 11.5 1.4 6.33155 -46.1363 23.2906
146 -2.25 11.5 1.4 6.50174 -47.6323 -127.817
147 -2 11.5 1.4 6.67696 -54.1392 2.51372
148 -1.75 11.5 1.4 6.85681 -49.6597 173.462
149 -1.5 11.5 1.4 7.04095 -50.5153 14.7238
150 -1.25 11.5 1.4 7.22904 -49.2623 -137.506
151 -1 11.5 1.4 7.42079 -47.6106 67.4042
152 -0.75 11.5 1.4 7.61592 -50.1866 -154.847
153 -0.5 11.5 1.4 7.81417 -51.5816 -40.5153
154 -0.25 11.5 1.4 8.01532 -52.1939 66.112
155 -1.77636e-15 11.5 1.4 8.21915 -48.3416 165.739
156 0.25 11.5 1.4 8.42547 -51.418 -78.8763
157 0.5 11.5 1.4 8.6341 -55.2059 12.881
158 0.75 11.5 1.4 8.84487 -51.0974 126.882
159 1 11.5 1.4 9.05764 -51.4356 -172.471
160 1.25 11.5 1.4 9.27226 -54.8956 -40.1041
161 1.5 11.5 1.4 9.48862 -50.3761 57.3804
162 1.75 11.5 1.4 9.7066 -52.7345 -176.931
163 2 11.5 1.4 9.92608 -57.318 -147.582
164 2.25 11.5 1.4 10.147 -55.9898 174.168
165 2.5 11.5 1.4 10.3692 -56.5797 116.533
166 2.75 11.5 1.4 10.5927 -64.7927 -56.3303
167 3 11.5 1.4 10.8173 -56.8425 -55.0282
168 3.25 11.5 1.4 11.043 -64.3872 121.775
169 3.5 11.5 1.4 11.2697 -52.5879 111.806
170 3.75 11.5 1.4 11.4974 -59.1097 150.483
171 4 11.5 1.4 11.726 -53.0323 -161.658
172 4.25 11.5 1.4 11.9555 -58.0539 -128.715
173 4.5 11.5 1.4 12.1858 -58.7343 -100.149
174 4.75 11.5 1.4 12.4168 -62.6385 63.9495
175 5 11.5 1.4 12.6486 -63.2469 90.6809
176 5.25 11.5 1.4 12.881 -61.9547 146.535
177 5.5 11.5 1.4 13.1141 -55.8428 -147.165
178 5.75 11.5 1.4 13.3478 -58.9155 -163.485
179 6 11.5 1.4 13.5821 -56.8533 -91.399
180 6.25 11.5 1.4 13.8169 -59.1883 -106.078
181 6.5 11.5 1.4 14.0523 -65.9035 -64.4793
182 6.75 11.5 1.4 14.2881 -67.4888 -38.1298
183 7 11.5 1.4 14.5244 -63.9777 34.438
184 7.25 11.5 1.4 14.7612 -62.5576 128.781
185 7.5 11.5 1.4 14.9984 -57.3755 -138.303
186 7.75 11.5 1.4 15.236 -60.8162 -146.282
187 8 11.5 1.4 15.474 -71.2516 170.396
188 8.25 11.5 1.4 15.7124 -67.6177 -83.1535
189 8.5 11.5 1.4 15.9511 -66.8027 -169.847
190 8.75 11.5 1.4 16.1902 -58.259 177.019
191 9 11.5 1.4 16.4296 -83.2545 97.0285
192 9.25 11.5 1.4 16.6693 -66.3523 85.1551
193 9.5 11.5 1.4 16.9093 -60.3361 -130.642
194 9.75 11.5 1.4 17.1496 -63.1483 -88.1964
195 10 11.5 1.4 17.3902 -69.5828 42.6663
196 10.25 11.5 1.4 17.631 -62.0497 165.434
197 10.5 11.5 1.4 17.8721 -67.159 -84.2195
198 10.75 11.5 1.4 18.1134 -58.9026 62.1417
199 11 11.5 1.4 18.355 -55.4674 108.807
200 11.25 11.5 1.4 18.5967 -81.5783 -63.1669
201 11.5 11.5 1.4 18.8387 -67.4928 74.5531
202 11.75 11.5 1.4 19.0809 -57.7297 89.4108
203 12 11.5 1.4 19.3233 -57.2091 164.243
204 12.25 11.5 1.4 19.5659 -61.503 -53.9152
205 12.5 11.5 1.4 19.8087 -63.5723 74.7416
206 12.75 11.5 1.4 20.0516 -61.0234 131.144
207 13 11.5 1.4 20.2948 -64.7859 151.664
208 13.25 11.5 1.4 20.538 -65.6415 19.9839
209 13.5 11.5 1.4 20.7815 -60.3484 62.0674
210 13.75 11.5 1.4 21.0251 -68.9957 94.93
211 14 11.5 1.4 21.2688 -63.709 -12.1652
212 14.25 11.5 1.4 21.5127 -60.164 7.15286
213 14.5 11.5 1.4 21.7568 -61.803 21.4128
214 14.75 11.5 1.4 22.0009 -65.9153 25.6506
215 15 11.5 1.4 22.2452 -71.7986 69.7795
216 15.25 11.5 1.4 22.4896 -64.8976 58.5678
217 15.5 11.5 1.4 22.7342 -70.6322 -19.4218
218 15.75 11.5 1.4 22.9788 -61.7233 -41.5812
219 16 11.5 1.4 23.2236 -67.2177 8.48564
220 16.25 11.5 1.4 23.4685 -68.6949 -8.50154
221 16.5 11.5 1.4 23.7135 -69.1413 83.4268
222 16.75 11.5 1.4 23.9586 -71.5936 97.9687
223 17 11.5 1.4 24.2038 -67.5438 -93.8493
224 17.25 11.5 1.4 24.4491 -63.5883 -87.0176
225 17.5 11.5 1.4 24.6944 -61.3214 -55.6189
226 17.75 11.5 1.4 24.9399 -64.4308 -34.2315
227 18 11.5 1.4 25.1855 -72.6054 -10.5121
228 18.25 11.5 1.4 25.4311 -70.7675 -94.2851
229 18.5 11.5 1.4 25.6769 -65.4178 -140.257
230 18.75 11.5 1.4 25.9227 -66.5868 -70.3575
231 19 11.5 1.4 26.1686 -63.2299 -102.237
232 19.25 11.5 1.4 26.4146 -62.6908 -85.4675
233 19.5 11.5 1.4 26.6606 -67.1116 -78.3333
234 19.75 11.5 1.4 26.9067 -69.5223 -134.451
235 20 11.5 1.4 27.1529 -72.6783 -155.105
236 20.25 11.5 1.4 27.3992 -79.6072 -176.616
237 20.5 11.5 1.4 27.6455 -64.6893 162.022
238 20.75 11.5 1.4 27.8919 -65.5659 -148.394
239 21 11.5 1.4 28.1384 -76.6669 -139.226
240 21.25 11.5 1.4 28.3849 -71.1898 175.97
241 21.5 11.5 1.4 28.6315 -74.5617 140.783
242 21.75 11.5 1.4 28.8781 -69.1238 59.889
243 22 11.5 1.4 29.1248 -66.9327 74.8379
244 22.25 11.5 1.4 29.3716 -72.3663 87.9005
245 22.5 11.5 1.4 29.6184 -75.8947 6.64373
246 22.75 11.5 1.4 29.8652 -67.9655 17.4404
247 23 11.5 1.4 30.1121 -73.2494 45.1937
248 23.25 11.5 1.4 30.3591 -77.1593 33.7872
249 23.5 11.5 1.4 30.6061 -65.0654 -11.0527
250 23.75 11.5 1.4 30.8532 -67.0242 18.7699
251 24 11.5 1.4 31.1003 -69.5159 29.6505
252 24.25 11.5 1.4 31.3474 -75.7693 -65.1887
253 -7 11.75 1.4 4.45677 -47.2304 -147.071
254 -6.75 11.75 1.4 4.44937 -45.5259 -162.145
255 -6.5 11.75 1.4 4.456 -45.5383 -161.771
256 -6.25 11.75 1.4 4.47661 -45.6179 84.2567
257 -6 11.75 1.4 4.511 -48.4192 118.649
258 -5.75 11.75 1.4 4.55886 -45.4012 -107.639
259 -5.5 11.75 1.4 4.61977 -46.0035 -33.2206
260 -5.25 11.75 1.4 4.69323 -50.8798 112.118
261 -5 11.75 1.4 4.77865 -44.2139 -94.0846
262 -4.75 11.75 1.4 4.8754 -47.1757 -16.2921
263 -4.5 11.75 1.4 4.98284 -54.0395 77.9486
264 -4.25 11.75 1.4 5.10027 -51.2745 58.1826
265 -4 11.75 1.4 5.22703 -50.9525 38.2314
266 -3.75 11.75 1.4 5.36246 -50.1095 -7.7567
267 -3.5 11.75 1.4 5.50591 -51.563 -90.1475
268 -3.25 11.75 1.4 5.65677 -56.5555 -94.458
269 -3 11.75 1.4 5.81448 -51.754 128.117
270 -2.75 11.75 1.4 5.97848 -48.154 -24.0661
271 -2.5 11.75 1.4 6.14828 -44.6988 177.257
272 -2.25 11.75 1.4 6.32341 -50.1955 32.8643
273 -2 11.75 1.4 6.50343 -63.9781 -166.048
274 -1.75 11.75 1.4 6.68795 -57.9268 4.85227
275 -1.5 11.75 1.4 6.87661 -49.3274 -147.281
276 -1.25 11.75 1.4 7.06907 -46.7464 24.5669
277 -1 11.75 1.4 7.26505 -48.1621 171.976
278 -0.75 11.75 1.4 7.46425 -51.7857 -103.167
279 -0.5 11.75 1.4 7.66643 -48.4327 4.96354
280 -0.25 11.75 1.4 7.87135 -50.1096 135.877
281 -1.77636e-15 11.75 1.4 8.07882 -53.529 -106.693
282 0.25 11.75 1.4 8.28863 -54.7974 -33.8159
283 0.5 11.75 1.4 8.50061 -60.7501 96.6608
284 0.75 11.75 1.4 8.71462 -64.4279 140.378
285 1 11.75 1.4 8.93049 -65.1888 35.6558
286 1.25 11.75 1.4 9.1481 -55.0798 -57.3845
287 1.5 11.75 1.4 9.36733 -48.4688 -2.70725
288 1.75 11.75 1.4 9.58806 -52.4053 66.9841
289 2 11.75 1.4 9.8102 -53.7441 -170.217
290 2.25 11.75 1.4 10.0336 -56.563 -12.4898
291 2.5 11.75 1.4 10.2583 -71.3307 -46.6365
292 2.75 11.75 1.4 10.4841 -56.1442 -120.118
293 3 11.75 1.4 10.711 -52.0993 -65.6414
294 3.25 11.75 1.4 10.9389 -52.3137 -13.6535
295 3.5 11.75 1.4 11.1678 -59.1395 15.874
296 3.75 11.75 1.4 11.3975 -55.9604 111.404
297 4 11.75 1.4 11.6281 -59.1271 39.9077
298 4.25 11.75 1.4 11.8595 -66.7452 60.2992
299 4.5 11.75 1.4 12.0916 -53.6108 29.5693
300 4.75 11.75 1.4 12.3244 -57.1345 17.7407
301 5 11.75 1.4 12.5578 -57.4375 70.0154
302 5.25 11.75 1.4 12.7919 -63.0394 83.4402
303 5.5 11.75 1.4 13.0266 -63.1584 57.7932
304 5.75 11.75 1.4 13.2618 -63.5409 -70.634
305 6 11.75 1.4 13.4976 -63.4741 101.643
306 6.25 11.75 1.4 13.7339 -61.6432 35.7816
307 6.5 11.75 1.4 13.9706 -70.5072 70.1108
308 6.75 11.75 1.4 14.2078 -60.1636 39.6158
309 7 11.75 1.4 14.4455 -66.536 41.191
310 7.25 11.75 1.4 14.6835 -75.3391 -105.959
311 7.5 11.75 1.4 14.922 -76.3794 -75.5748
312 7.75 11.75 1.4 15.1608 -69.2851 -50.9941
313 8 11.75 1.4 15.3999 -61.1615 -66.7606
314 8.25 11.75 1.4 15.6394 -66.7907 85.8933
315 8.5 11.75 1.4 15.8793 -61.4886 145.698
316 8.75 11.75 1.4 16.1194 -66.4862 -101.587
317 9 11.75 1.4 16.3598 -75.1451 -15.783
318 9.25 11.75 1.4 16.6006 -58.1826 -179.565
319 9.5 11.75 1.4 16.8415 -59.8356 -88.8794
320 9.75 11.75 1.4 17.0828 -58.6515 -43.3086
321 10 11.75 1.4 17.3243 -70.9087 139.466
322 10.25 11.75 1.4 17.566 -56.5991 -101.758
323 10.5 11.75 1.4 17.808 -58.8479 -11.1832
324 10.75 11.75 1.4 18.0502 -63.6328 112.036
325 11 11.75 1.4 18.2925 -64.943 -116.682
326 11.25 11.75 1.4 18.5351 -62.9598 -88.099
327 11.5 11.75 1.4 18.7779 -66.2195 -26.7074
328 11.75 11.75 1.4 19.0209 -65.4356 -145.16
329 12 11.75 1.4 19.264 -61.9162 -109.384
330 12.25 11.75 1.4 19.5074 -61.6449 -122.432
331 12.5 11.75 1.4 19.7509 -61.2923 -29.2527
332 12.75 11.75 1.4 19.9945 -64.0946 179.787
333 13 11.75 1.4 20.2383 -62.4835 -122.193
334 13.25 11.75 1.4 20.4823 -71.1349 -64.8131
335 13.5 11.75 1.4 20.7264 -79.0313 -19.9987
336 13.75 11.75 1.4 20.9706 -73.1444 -104.501
337 14 11.75 1.4 21.215 -70.7792 -144.261
338 14.25 11.75 1.4 21.4595 -72.3057 40.0639
339 14.5 11.75 1.4 21.7041 -68.6341 71.7266
340 14.75 11.75 1.4 21.9489 -63.6236 91.8393
341 15 11.75 1.4 22.1938 -63.285 116.267
342 15.25 11.75 1.4 22.4387 -64.0087 150.876
343 15.5 11.75 1.4 22.6838 -64.8741 -172.018
344 15.75 11.75 1.4 22.929 -61.1616 -151.981
345 16 11.75 1.4 23.1743 -69.6586 -160.561
346 16.25 11.75 1.4 23.4197 -70.7965 137.832
347 16.5 11.75 1.4 23.6652 -63.7126 94.8326
348 16.75 11.75 1.4 23.9108 -64.8627 119.394
349 17 11.75 1.4 24.1565 -63.006 145.88
350 17.25 11.75 1.4 24.4022 -75.8013 141.374
351 17.5 11.75 1.4 24.6481 -71.0702 144.332
352 17.75 11.75 1.4 24.894 -66.3123 49.2261
353 18 11.75 1.4 25.14 -61.6384 66.6001
354 18.25 11.75 1.4 25.3861 -63.908 75.6266
355 18.5 11.75 1.4 25.6323 -65.341 77.0175
356 18.75 11.75 1.4 25.8785 -64.9738 98.9095
357 19 11.75 1.4 26.1249 -68.0939 18.0445
358 19.25 11.75 1.4 26.3712 -71.3802 74.8918
359 19.5 11.75 1.4 26.6177 -75.3464 69.0785
360 19.75 11.75 1.4 26.8642 -76.3449 77.0891
361 20 11.75 1.4 27.1108 -65.2831 6.39176
362 20.25 11.75 1.4 27.3574 -70.8874 78.8206
363 20.5 11.75 1.4 27.6041 -72.5466 -139.358
364 20.75 11.75 1.4 27.8509 -75.8229 -65.3308
365 21 11.75 1.4 28.0977 -81.7683 164.48
366 21.25 11.75 1.4 28.3446 -66.8953 -144.854
367 21.5 11.75 1.4 28.5915 -66.4137 -116.885
368 21.75 11.75 1.4 28.8385 -72.353 -150.594
369 22 11.75 1.4 29.0855 -69.0702 160.171
370 22.25 11.75 1.4 29.3326 -71.6348 -170.631
371 22.5 11.75 1.4 29.5797 -71.4357 148.213
372 22.75 11.75 1.4 29.8269 -67.0566 127.327
373 23 11.75 1.4 30.0741 -67.5012 119.092
374 23.25 11.75 1.4 30.3214 -70.8106 -136.404
375 23.5 11.75 1.4 30.5687 -76.9625 -15.8127
376 23.75 11.75 1.4 30.8161 -77.2165 4.21694
377 24 11.75 1.4 31.0635 -80.3613 119.191
378 24.25 11.75 1.4 31.3109 -82.9447 -170.2
379 -7 12 1.4 4.20721 -45.5502 -156.563
380 -6.75 12 1.4 4.19937 -43.1958 169.235
381 -6.5 12 1.4 4.2064 -44.3844 -171.654
382 -6.25 12 1.4 4.22822 -43.4281 91.767
383 -6 12 1.4 4.26462 -45.2816 54.2209
384 -5.75 12 1.4 4.31521 -44.8548 -134.158
385 -5.5 12 1.4 4.37951 -57.2879 -8.05688
386 -5.25 12 1.4 4.45693 -46.5979 165.891
387 -5 12 1.4 4.54679 -42.4773 -142.528
388 -4.75 12 1.4 4.64837 -52.9581 -78.6988
389 -4.5 12 1.4 4.76093 -51.3303 -39.7948
390 -4.25 12 1.4 4.8837 -48.3159 -39.5396
391 -4 12 1.4 5.01594 -47.0967 -50.935
392 -3.75 12 1.4 5.15691 -48.1352 -135.796
393 -3.5 12 1.4 5.30592 -50.7764 -155.368
394 -3.25 12 1.4 5.46232 -49.6768 94.0121
395 -3 12 1.4 5.62548 -45.9669 -49.6404
396 -2.75 12 1.4 5.79483 -49.4171 129.315
397 -2.5 12 1.4 5.96986 -46.8654 -39.9992
398 -2.25 12 1.4 6.15006 -53.0516 -163.387
399 -2 12 1.4 6.33501 -57.221 97.5577
400 -1.75 12 1.4 6.5243 -50.9446 159.975
401 -1.5 12 1.4 6.71756 -47.4252 -13.8462
402 -1.25 12 1.4 6.91445 -52.3647 121.86
403 -1 12 1.4 7.11468 -52.2811 147.674
404 -0.75 12 1.4 7.31798 -44.9695 -57.9088
405 -0.5 12 1.4 7.52409 -48.5903 96.1215
406 -0.25 12 1.4 7.73279 -54.0552 174.877
407 -1.77636e-15 12 1.4 7.94387 -63.099 -120.193
408 0.25 12 1.4 8.15715 -53.46 26.3472
409 0.5 12 1.4 8.37247 -53.607 110.014
410 0.75 12 1.4 8.58967 -70.454 -129.178
411 1 12 1.4 8.8086 -59.583 -75.0644
412 1.25 12 1.4 9.02915 -55.6813 -132.832
413 1.5 12 1.4 9.2512 -56.7684 -53.3592
414 1.75 12 1.4 9.47463 -50.2181 71.5368
415 2 12 1.4 9.69937 -51.9743 97.1855
416 2.25 12 1.4 9.92532 -57.5921 -92.9336
417 2.5 12 1.4 10.1524 -60.5191 122.956
418 2.75 12 1.4 10.3805 -50.4461 167.12
419 3 12 1.4 10.6096 -55.2146 -137.342
420 3.25 12 1.4 10.8397 -63.0482 -78.8676
421 3.5 12 1.4 11.0706 -60.7019 41.5072
422 3.75 12 1.4 11.3023 -56.3233 -163.599
423 4 12 1.4 11.5348 -53.0145 -167.597
424 4.25 12 1.4 11.7679 -68.871 39.2962
425 4.5 12 1.4 12.0018 -57.653 -122.736
426 4.75 12 1.4 12.2363 -60.2697 -156.4
427 5 12 1.4 12.4714 -56.9788 -154.939
428 5.25 12 1.4 12.7071 -62.6044 -152.932
429 5.5 12 1.4 12.9433 -65.6136 -118.161
430 5.75 12 1.4 13.1801 -59.2278 51.6941
431 6 12 1.4 13.4173 -71.1683 -61.1347
432 6.25 12 1.4 13.6549 -59.1205 159.699
433 6.5 12 1.4 13.893 -61.8918 164.067
434 6.75 12 1.4 14.1315 -59.3684 -172.6
435 7 12 1.4 14.3704 -58.3268 -175.053
436 7.25 12 1.4 14.6097 -67.4909 -122.19
437 7.5 12 1.4 14.8493 -65.3675 -49.3915
438 7.75 12 1.4 15.0893 -66.2255 -139.076
439 8 12 1.4 15.3296 -66.4705 -8.58744
440 8.25 12 1.4 15.5702 -59.9764 72.0494
441 8.5 12 1.4 15.811 -72.2467 83.6153
442 8.75 12 1.4 16.0522 -63.5036 12.2453
443 9 12 1.4 16.2936 -60.8487 65.5996
444 9.25 12 1.4 16.5353 -80.944 158.099
445 9.5 12 1.4 16.7772 -67.1807 -14.1193
446 9.75 12 1.4 17.0194 -55.9628 68.0045
447 10 12 1.4 17.2618 -61.2464 156.431
448 10.25 12 1.4 17.5044 -67.4096 -56.2492
449 10.5 12 1.4 17.7472 -55.7316 45.0132
450 10.75 12 1.4 17.9902 -66.1699 116.924
451 11 12 1.4 18.2333 -60.6213 -104.207
452 11.25 12 1.4 18.4767 -57.8114 -16.8527
453 11.5 12 1.4 18.7203 -64.8529 60.7209
454 11.75 12 1.4 18.964 -66.0209 -55.3476
455 12 12 1.4 19.2078 -65.0084 -15.9855
456 12.25 12 1.4 19.4519 -63.9787 -2.65835
457 12.5 12 1.4 19.6961 -64.6948 118.446
458 12.75 12 1.4 19.9404 -65.2129 64.2716
459 13 12 1.4 20.1848 -67.1786 162.514
460 13.25 12 1.4 20.4294 -68.9435 116.003
461 13.5 12 1.4 20.6742 -69.9539 43.1865
462 13.75 12 1.4 20.919 -69.0258 171.87
463 14 12 1.4 21.164 -62.1363 -169.637
464 14.25 12 1.4 21.4091 -62.229 -117.601
465 14.5 12 1.4 21.6543 -64.2876 -88.6292
466 14.75 12 1.4 21.8996 -69.149 -74.3662
467 15 12 1.4 22.145 -71.0586 -129.897
468 15.25 12 1.4 22.3905 -66.1159 -98.9251
469 15.5 12 1.4 22.6361 -65.556 -120.855
470 15.75 12 1.4 22.8818 -65.8087 -127.347
471 16 12 1.4 23.1276 -61.9967 -106.6
472 16.25 12 1.4 23.3735 -65.5263 -64.0189
473 16.5 12 1.4 23.6195 -68.5949 -53.5563
474 16.75 12 1.4 23.8655 -67.1331 -143.412
475 17 12 1.4 24.1117 -69.9755 -164.764
476 17.25 12 1.4 24.3579 -61.3794 -155.058
477 17.5 12 1.4 24.6042 -67.8189 -92.8217
478 17.75 12 1.4 24.8506 -82.752 130.098
479 18 12 1.4 25.097 -72.3615 24.1743
480 18.25 12 1.4 25.3435 -71.2121 71.7936
481 18.5 12 1.4 25.5901 -64.9834 119.504
482 18.75 12 1.4 25.8367 -70.1565 114.796
483 19 12 1.4 26.0834 -66.4684 80.3057
484 19.25 12 1.4 26.3302 -67.1126 125.519
485 19.5 12 1.4 26.577 -68.2109 142.143
486 19.75 12 1.4 26.8239 -72.2686 -97.5745
487 20 12 1.4 27.0709 -67.6545 2.84798
488 20.25 12 1.4 27.3179 -72.8115 38.1129
489 20.5 12 1.4 27.5649 -65.3297 -8.02302
490 20.75 12 1.4 27.812 -66.5954 -13.3685
491 21 12 1.4 28.0592 -67.7787 33.2363
492 21.25 12 1.4 28.3064 -65.6646 -43.0518
493 21.5 12 1.4 28.5537 -75.18 -39.2211
494 21.75 12 1.4 28.801 -84.8299 40.9212
495 22 12 1.4 29.0483 -76.5968 -74.5807
496 22.25 12 1.4 29.2957 -69.5472 -71.307
497 22.5 12 1.4 29.5432 -71.2521 7.8501
498 22.75 12 1.4 29.7906 -71.4849 82.2902
499 23 12 1.4 30.0382 -80.3549 162.74
500 23.25 12 1.4 30.2857 -72.646 167.47
501 23.5 12 1.4 30.5333 -76.6126 -29.1264
502 23.75 12 1.4 30.781 -75.1407 -45.628
503 24 12 1.4 31.0287 -72.0898 -97.1852
504 24.25 12 1.4 31.2764 -69.0936 -89.542
505 -7 12.25 1.4 3.9577 -42.9952 -151.628
506 -6.75 12.25 1.4 3.94937 -42.1871 -161.107
507 -6.5 12.25 1.4 3.95684 -41.553 -166.456
508 -6.25 12.25 1.4 3.98003 -43.7814 82.0955
509 -6 12.25 1.4 4.01868 -42.8631 59.9035
510 -5.75 12.25 1.4 4.07233 -48.8529 -155.931
511 -5.5 12.25 1.4 4.1404 -56.4044 40.9876
512 -5.25 12.25 1.4 4.22221 -41.1911 119.882
513 -5 12.25 1.4 4.31696 -45.3742 -150.823
514 -4.75 12.25 1.4 4.42382 -48.8083 -59.7876
515 -4.5 12.25 1.4 4.54195 -47.6655 -108.087
516 -4.25 12.25 1.4 4.67048 -47.8863 -119.218
517 -4 12.25 1.4 4.80858 -48.816 170.027
518 -3.75 12.25 1.4 4.95546 -63.0992 114.281
519 -3.5 12.25 1.4 5.11035 -49.3784 27.5408
520 -3.25 12.25 1.4 5.27255 -46.0999 -91.8917
521 -3 12.25 1.4 5.4414 -45.3134 109.763
522 -2.75 12.25 1.4 5.61631 -59.1116 -67.0611
523 -2.5 12.25 1.4 5.79672 -55.3649 82.8862
524 -2.25 12.25 1.4 5.98215 -49.6345 -19.2346
525 -2 12.25 1.4 6.17213 -50.489 -171.976
526 -1.75 12.25 1.4 6.36626 -50.2862 -99.3789
527 -1.5 12.25 1.4 6.56417 -47.1092 43.8926
528 -1.25 12.25 1.4 6.76553 -52.3343 156.751
529 -1 12.25 1.4 6.97005 -45.2719 -89.6005
530 -0.75 12.25 1.4 7.17744 -50.3748 39.9985
531 -0.5 12.25 1.4 7.38747 -64.4289 -23.6498
532 -0.25 12.25 1.4 7.59992 -54.4232 -144.326
533 -1.77636e-15 12.25 1.4 7.8146 -51.9408 -23.3174
534 0.25 12.25 1.4 8.03131 -58.7714 -1.41383
535 0.5 12.25 1.4 8.24991 -57.5803 29.7869
536 0.75 12.25 1.4 8.47025 -59.0337 -154.894
537 1 12.25 1.4 8.6922 -59.1634 -144.489
538 1.25 12.25 1.4 8.91562 -59.0378 -136.751
539 1.5 12.25 1.4 9.14043 -53.1747 -84.4065
540 1.75 12.25 1.4 9.36651 -49.8386 -28.9852
541 2 12.25 1.4 9.59378 -61.9417 70.6233
542 2.25 12.25 1.4 9.82215 -57.9333 149.45
543 2.5 12.25 1.4 10.0516 -53.9678 6.59217
544 2.75 12.25 1.4 10.2819 -53.7081 69.7397
545 3 12.25 1.4 10.5132 -53.3847 -140.709
546 3.25 12.25 1.4 10.7453 -53.8338 -19.6413
547 3.5 12.25 1.4 10.9782 -54.4306 25.6002
548 3.75 12.25 1.4 11.2118 -55.1913 33.9244
549 4 12.25 1.4 11.4461 -56.2103 -37.9061
550 4.25 12.25 1.4 11.6811 -59.1413 -72.2242
551 4.5 12.25 1.4 11.9166 -61.1756 61.3303
552 4.75 12.25 1.4 12.1528 -66.1492 130.705
553 5 12.25 1.4 12.3895 -70.2779 -119.724
554 5.25 12.25 1.4 12.6267 -65.4896 -42.0273
555 5.5 12.25 1.4 12.8644 -56.4932 -5.50953
556 5.75 12.25 1.4 13.1026 -59.8273 -15.1681
557 6 12.25 1.4 13.3411 -59.1125 66.7111
558 6.25 12.25 1.4 13.5801 -64.6589 13.8448
559 6.5 12.25 1.4 13.8195 -59.6872 -178.647
560 6.75 12.25 1.4 14.0593 -63.2234 168.017
561 7 12.25 1.4 14.2994 -60.2668 -96.0532
562 7.25 12.25 1.4 14.5398 -63.7777 -82.8629
563 7.5 12.25 1.4 14.7806 -65.5753 -133.253
564 7.75 12.25 1.4 15.0216 -79.9286 -117.547
565 8 12.25 1.4 15.263 -62.3514 52.5991
566 8.25 12.25 1.4 15.5046 -58.5591 -150.169
567 8.5 12.25 1.4 15.7465 -56.6591 -100.393
568 8.75 12.25 1.4 15.9886 -71.4834 151.623
569 9 12.25 1.4 16.231 -57.5157 175.548
570 9.25 12.25 1.4 16.4736 -55.6018 -123.485
571 9.5 12.25 1.4 16.7164 -68.2222 20.8828
572 9.75 12.25 1.4 16.9594 -56.04 156.522
573 10 12.25 1.4 17.2027 -55.6777 -174.87
574 10.25 12.25 1.4 17.4461 -66.7086 51.4589
575 10.5 12.25 1.4 17.6897 -60.0007 139.457
576 10.75 12.25 1.4 17.9335 -56.7712 166.727
577 11 12.25 1.4 18.1774 -62.0348 -119.588
578 11.25 12.25 1.4 18.4215 -60.8552 -23.4392
579 11.5 12.25 1.4 18.6658 -67.2873 80.8298
580 11.75 12.25 1.4 18.9102 -67.228 -165.876
581 12 12.25 1.4 19.1547 -64.1138 -14.6313
582 12.25 12.25 1.4 19.3994 -58.8746 61.6056
583 12.5 12.25 1.4 19.6443 -73.4779 143.52
584 12.75 12.25 1.4 19.8892 -61.8275 -78.7612
585 13 12.25 1.4 20.1343 -67.455 11.0731
586 13.25 12.25 1.4 20.3795 -66.9088 -66.3186
587 13.5 12.25 1.4 20.6248 -61.5968 25.6992
588 13.75 12.25 1.4 20.8703 -58.2904 67.7221
589 14 12.25 1.4 21.1158 -65.3205 114.693
590 14.25 12.25 1.4 21.3614 -65.2118 56.2036
591 14.5 12.25 1.4 21.6072 -62.4171 18.7904
592 14.75 12.25 1.4 21.853 -61.0938 13.3318
593 15 12.25 1.4 22.0989 -60.3093 52.9759
594 15.25 12.25 1.4 22.345 -59.04 33.4249
595 15.5 12.25 1.4 22.5911 -60.4149 57.0934
596 15.75 12.25 1.4 22.8373 -62.0458 75.6233
597 16 12.25 1.4 23.0835 -65.7169 27.3112
598 16.25 12.25 1.4 23.3299 -63.456 46.8533
599 16.5 12.25 1.4 23.5763 -59.531 18.2071
600 16.75 12.25 1.4 23.8228 -69.1409 29.2636
601 17 12.25 1.4 24.0694 -71.621 64.8279
602 17.25 12.25 1.4 24.316 -75.994 -150.152
603 17.5 12.25 1.4 24.5628 -66.4905 -104.752
604 17.75 12.25 1.4 24.8095 -63.2279 -115.659
605 18 12.25 1.4 25.0564 -61.6941 -122.872
606 18.25 12.25 1.4 25.3033 -63.3742 -96.7287
607 18.5 12.25 1.4 25.5503 -63.2051 -136.136
608 18.75 12.25 1.4 25.7973 -69.7254 -118.017
609 19 12.25 1.4 26.0444 -76.3269 89.9654
610 19.25 12.25 1.4 26.2915 -64.3952 136.488
611 19.5 12.25 1.4 26.5387 -62.2134 -177.245
612 19.75 12.25 1.4 26.7859 -73.4229 -179.726
613 20 12.25 1.4 27.0332 -67.2923 -154.089
614 20.25 12.25 1.4 27.2806 -68.4561 -130.828
615 20.5 12.25 1.4 27.528 -86.2286 164.314
616 20.75 12.25 1.4 27.7754 -67.9457 112.94
617 21 12.25 1.4 28.0229 -65.1134 165.439
618 21.25 12.25 1.4 28.2704 -68.9466 176.515
619 21.5 12.25 1.4 28.518 -68.4429 -174.564
620 21.75 12.25 1.4 28.7656 -64.2931 145.822
621 22 12.25 1.4 29.0132 -68.578 -179.363
622 22.25 12.25 1.4 29.2609 -77.4961 136.691
623 22.5 12.25 1.4 29.5087 -69.6689 117.611
624 22.75 12.25 1.4 29.7564 -71.4232 113.092
625 23 12.25 1.4 30.0042 -79.2439 152.706
626 23.25 12.25 1.4 30.2521 -83.1129 -5.77293
627 23.5 12.25 1.4 30.5 -79.6193 -130.32
628 23.75 12.25 1.4 30.7479 -72.6246 132.117
629 24 12.25 1.4 30.9958 -72.471 166.504
630 24.25 12.25 1.4 31.2438 -72.091 154.852
631 -7 12.5 1.4 3.70826 -42.237 -137.854
632 -6.75 12.5 1.4 3.69937 -43.473 -146.549
633 -6.5 12.5 1.4 3.70734 -41.2503 -156.399
634 -6.25 12.5 1.4 3.73209 -51.1958 97.4743
635 -6 12.5 1.4 3.77327 -41.583 41.6592
636 -5.75 12.5 1.4 3.83036 -56.5529 121.501
637 -5.5 12.5 1.4 3.90266 -48.8917 24.7619
638 -5.25 12.5 1.4 3.98934 -42.5712 85.1887
639 -5 12.5 1.4 4.08949 -48.4238 -144.021
640 -4.75 12.5 1.4 4.20215 -47.9621 171.26
641 -4.5 12.5 1.4 4.32633 -45.2724 -165.133
642 -4.25 12.5 1.4 4.46108 -50.5538 123.796
643 -4 12.5 1.4 4.60546 -53.9132 39.2208
644 -3.75 12.5 1.4 4.75861 -47.1618 8.75469
645 -3.5 12.5 1.4 4.9197 -45.8095 -117.361
646 -3.25 12.5 1.4 5.08798 -45.9361 54.215
647 -3 12.5 1.4 5.26276 -51.3352 -104.905
648 -2.75 12.5 1.4 5.44341 -51.7689 121.48
649 -2.5 12.5 1.4 5.62937 -57.1593 83.4754
650 -2.25 12.5 1.4 5.82013 -45.6274 94.3598
651 -2 12.5 1.4 6.01523 -52.3335 -106.325
652 -1.75 12.5 1.4 6.21427 -45.9077 -15.2595
653 -1.5 12.5 1.4 6.41687 -48.9495 111.461
654 -1.25 12.5 1.4 6.62271 -47.1877 -155.688
655 -1 12.5 1.4 6.8315 -55.9001 9.1209
656 -0.75 12.5 1.4 7.04297 -59.1418 9.974
657 -0.5 12.5 1.4 7.2569 -48.2078 148.198
658 -0.25 12.5 1.4 7.47306 -51.5791 -41.3868
659 -1.77636e-15 12.5 1.4 7.69128 -58.6406 -148.536
660 0.25 12.5 1.4 7.91137 -56.5318 -19.4844
661 0.5 12.5 1.4 8.1332 -62.1892 145.035
662 0.75 12.5 1.4 8.35661 -52.255 111.788
663 1 12.5 1.4 8.5815 -53.3147 143.714
664 1.25 12.5 1.4 8.80773 -55.9501 129.171
665 1.5 12.5 1.4 9.03522 -56.5029 -135.508
666 1.75 12.5 1.4 9.26387 -52.6803 -142.149
667 2 12.5 1.4 9.4936 -70.5767 66.8048
668 2.25 12.5 1.4 9.72433 -58.3291 134.833
669 2.5 12.5 1.4 9.95598 -54.2481 -142.139
670 2.75 12.5 1.4 10.1885 -64.4231 78.7272
671 3 12.5 1.4 10.4218 -53.8979 131.46
672 3.25 12.5 1.4 10.6559 -50.8696 -100.51
673 3.5 12.5 1.4 10.8907 -60.3792 15.0927
674 3.75 12.5 1.4 11.1262 -62.1455 131.877
675 4 12.5 1.4 11.3623 -54.2651 169.493
676 4.25 12.5 1.4 11.5989 -58.959 1.12766
677 4.5 12.5 1.4 11.8361 -63.5547 107.831
678 4.75 12.5 1.4 12.0739 -57.1183 149.163
679 5 12.5 1.4 12.3121 -57.8023 -177.602
680 5.25 12.5 1.4 12.5508 -62.9185 -102.727
681 5.5 12.5 1.4 12.7899 -71.2667 -110.878
682 5.75 12.5 1.4 13.0294 -67.0173 -1.98372
683 6 12.5 1.4 13.2693 -91.0264 115.335
684 6.25 12.5 1.4 13.5096 -60.9103 124.957
685 6.5 12.5 1.4 13.7502 -60.9657 6.06338
686 6.75 12.5 1.4 13.9911 -59.1633 -60.6568
687 7 12.5 1.4 14.2324 -61.3577 1.56278
688 7.25 12.5 1.4 14.4739 -59.1781 46.2509
689 7.5 12.5 1.4 14.7158 -58.6675 23.4191
690 7.75 12.5 1.4 14.9579 -55.2508 23.228
691 8 12.5 1.4 15.2002 -59.0624 118.687
692 8.25 12.5 1.4 15.4428 -64.8253 -147.856
693 8.5 12.5 1.4 15.6857 -58.4158 -23.8228
694 8.75 12.5 1.4 15.9287 -62.1162 41.112
695 9 12.5 1.4 16.172 -62.177 -107.496
696 9.25 12.5 1.4 16.4155 -54.8423 -30.9169
697 9.5 12.5 1.4 16.6591 -58.2091 38.9697
698 9.75 12.5 1.4 16.903 -72.6833 126.914
699 10 12.5 1.4 17.147 -61.0205 -64.3032
700 10.25 12.5 1.4 17.3912 -62.9885 -20.3433
701 10.5 12.5 1.4 17.6355 -64.6031 91.6214
702 10.75 12.5 1.4 17.8801 -61.7874 -108.966
703 11 12.5 1.4 18.1247 -62.9264 -58.2117
704 11.25 12.5 1.4 18.3695 -62.2144 21.5623
705 11.5 12.5 1.4 18.6145 -65.7311 90.9041
706 11.75 12.5 1.4 18.8596 -63.4664 -142.81
707 12 12.5 1.4 19.1048 -72.0588 -95.426
708 12.25 12.5 1.4 19.3501 -73.9897 -73.8573
709 12.5 12.5 1.4 19.5955 -59.7686 -144.557
710 12.75 12.5 1.4 19.8411 -59.0093 -128.203
711 13 12.5 1.4 20.0868 -59.5288 -106.121
712 13.25 12.5 1.4 20.3325 -60.0866 -134.462
713 13.5 12.5 1.4 20.5784 -61.2345 -110.444
714 13.75 12.5 1.4 20.8244 -69.4245 148.234
715 14 12.5 1.4 21.0705 -62.5466 159.95
716 14.25 12.5 1.4 21.3166 -61.7902 -147.788
717 14.5 12.5 1.4 21.5629 -63.9233 -150.854
718 14.75 12.5 1.4 21.8092 -71.8487 129.872
719 15 12.5 1.4 22.0556 -68.5667 -140.133
720 15.25 12.5 1.4 22.3021 -64.5098 -172.233
721 15.5 12.5 1.4 22.5487 -66.2937 124.778
722 15.75 12.5 1.4 22.7954 -63.0241 152.053
723 16 12.5 1.4 23.0421 -61.4534 171.113
724 16.25 12.5 1.4 23.2889 -64.6374 -135.039
725 16.5 12.5 1.4 23.5357 -75.7488 -112.742
726 16.75 12.5 1.4 23.7827 -67.852 87.0361
727 17 12.5 1.4 24.0296 -68.2029 106.174
728 17.25 12.5 1.4 24.2767 -70.8084 66.4616
729 17.5 12.5 1.4 24.5238 -75.1346 124.898
730 17.75 12.5 1.4 24.771 -69.7987 -179.474
731 18 12.5 1.4 25.0182 -66.2669 172.524
732 18.25 12.5 1.4 25.2655 -66.2659 -168.923
733 18.5 12.5 1.4 25.5128 -68.6176 -87.715
734 18.75 12.5 1.4 25.7602 -70.1512 -76.0889
735 19 12.5 1.4 26.0076 -66.1038 0.654143
736 19.25 12.5 1.4 26.2551 -72.9476 87.5559
737 19.5 12.5 1.4 26.5026 -71.7144 71.7956
738 19.75 12.5 1.4 26.7502 -73.3249 62.1002
739 20 12.5 1.4 26.9978 -67.9115 -53.1459
740 20.25 12.5 1.4 27.2455 -67.8368 -44.9095
741 20.5 12.5 1.4 27.4932 -67.1557 19.9605
742 20.75 12.5 1.4 27.7409 -82.7431 106.823
743 21 12.5 1.4 27.9887 -74.6649 -55.0117
744 21.25 12.5 1.4 28.2366 -74.7551 -29.2634
745 21.5 12.5 1.4 28.4844 -80.7119 86.7537
746 21.75 12.5 1.4 28.7323 -70.1387 -160.554
747 22 12.5 1.4 28.9803 -67.0709 -83.3126
748 22.25 12.5 1.4 29.2282 -68.8619 -30.5257
749 22.5 12.5 1.4 29.4762 -73.5398 -17.487
750 22.75 12.5 1.4 29.7243 -79.467 84.3574
751 23 12.5 1.4 29.9724 -73.1114 83.6864
752 23.25 12.5 1.4 30.2205 -72.487 -164.131
753 23.5 12.5 1.4 30.4686 -79.6899 26.711
754 23.75 12.5 1.4 30.7168 -75.3154 143.224
755 24 12.5 1.4 30.965 -78.9537 -112.583
756 24.25 12.5 1.4 31.2132 -74.1649 -10.008
757 -7 12.75 1.4 3.45891 -40.8606 -154.295
758 -6.75 12.75 1.4 3.44937 -44.7319 178.214
759 -6.5 12.75 1.4 3.45792 -39.7769 -158.048
760 -6.25 12.75 1.4 3.48444 -47.1718 137.299
761 -6 12.75 1.4 3.52851 -40.9467 16.1144
762 -5.75 12.75 1.4 3.5895 -49.463 -68.4654
763 -5.5 12.75 1.4 3.66655 -44.5217 -24.7366
764 -5.25 12.75 1.4 3.75868 -52.3371 30.7313
765 -5 12.75 1.4 3.86481 -57.1466 58.8468
766 -4.75 12.75 1.4 3.98382 -45.2517 93.2294
767 -4.5 12.75 1.4 4.1146 -46.3498 82.4089
768 -4.25 12.75 1.4 4.25606 -50.8727 12.7668
769 -4 12.75 1.4 4.40717 -48.3986 -16.81
770 -3.75 12.75 1.4 4.56697 -46.2841 -174.779
771 -3.5 12.75 1.4 4.73458 -45.9861 24.3746
772 -3.25 12.75 1.4 4.90921 -52.2349 -139.226
773 -3 12.75 1.4 5.09013 -63.5305 57.4173
774 -2.75 12.75 1.4 5.2767 -48.9289 -71.8001
775 -2.5 12.75 1.4 5.46833 -50.6035 64.8998
776 -2.25 12.75 1.4 5.66452 -46.8779 -178.329
777 -2 12.75 1.4 5.8648 -47.687 -71.9859
778 -1.75 12.75 1.4 6.06877 -47.0915 60.6975
779 -1.5 12.75 1.4 6.27607 -59.9828 -175.534
780 -1.25 12.75 1.4 6.48638 -48.1382 -98.9653
781 -1 12.75 1.4 6.69942 -61.5667 7.80359
782 -0.75 12.75 1.4 6.91493 -54.4325 97.7531
783 -0.5 12.75 1.4 7.1327 -55.9526 -50.1687
784 -0.25 12.75 1.4 7.35251 -48.1231 -157.446
785 -1.77636e-15 12.75 1.4 7.5742 -56.3121 -38.5114
786 0.25 12.75 1.4 7.7976 -56.0663 -121.1
787 0.5 12.75 1.4 8.02258 -55.4334 21.2777
788 0.75 12.75 1.4 8.24899 -55.2176 -10.4747
789 1 12.75 1.4 8.47673 -61.0305 41.0039
790 1.25 12.75 1.4 8.70569 -59.7552 -82.9338
791 1.5 12.75 1.4 8.93578 -55.8324 131.336
792 1.75 12.75 1.4 9.16691 -72.3773 158.428
793 2 12.75 1.4 9.399 -52.3604 -15.7656
794 2.25 12.75 1.4 9.632 -55.9823 10.7693
795 2.5 12.75 1.4 9.86582 -60.0712 -162.679
796 2.75 12.75 1.4 10.1004 -55.7361 -14.7673
797 3 12.75 1.4 10.3357 -60.1991 117.933
798 3.25 12.75 1.4 10.5717 -55.1827 -177.11
799 3.5 12.75 1.4 10.8084 -51.3857 -59.311
800 3.75 12.75 1.4 11.0456 -58.0605 66.026
801 4 12.75 1.4 11.2833 -59.049 -131.921
802 4.25 12.75 1.4 11.5216 -60.3033 -73.0775
803 4.5 12.75 1.4 11.7604 -54.3957 18.3855
804 4.75 12.75 1.4 11.9996 -59.7355 86.6933
805 5 12.75 1.4 12.2393 -61.4418 -166.437
806 5.25 12.75 1.4 12.4794 -63.2873 -145.495
807 5.5 12.75 1.4 12.7198 -69.7719 122.431
808 5.75 12.75 1.4 12.9606 -60.0227 140.713
809 6 12.75 1.4 13.2018 -58.8284 148.126
810 6.25 12.75 1.4 13.4432 -57.7354 169.688
811 6.5 12.75 1.4 13.685 -53.6395 -165.499
812 6.75 12.75 1.4 13.9271 -72.2571 -171.998
813 7 12.75 1.4 14.1694 -66.3075 125.431
814 7.25 12.75 1.4 14.412 -57.9876 130.836
815 7.5 12.75 1.4 14.6549 -68.5647 98.6954
816 7.75 12.75 1.4 14.898 -56.0896 133.26
817 8 12.75 1.4 15.1413 -55.101 149.691
818 8.25 12.75 1.4 15.3848 -63.8447 -142.141
819 8.5 12.75 1.4 15.6286 -62.8196 30.575
820 8.75 12.75 1.4 15.8725 -61.1984 122.466
821 9 12.75 1.4 16.1166 -60.608 -58.8948
822 9.25 12.75 1.4 16.3609 -59.2929 40.6971
823 9.5 12.75 1.4 16.6054 -56.5051 106.327
824 9.75 12.75 1.4 16.85 -60.4005 168.407
825 10 12.75 1.4 17.0948 -70.0375 -119.291
826 10.25 12.75 1.4 17.3397 -67.0811 43.2566
827 10.5 12.75 1.4 17.5848 -61.6298 -175.219
828 10.75 12.75 1.4 17.83 -64.9846 -173.582
829 11 12.75 1.4 18.0754 -63.822 -21.6829
830 11.25 12.75 1.4 18.3208 -61.2435 68.8027
831 11.5 12.75 1.4 18.5664 -72.9964 156.221
832 11.75 12.75 1.4 18.8121 -66.0687 16.554
833 12 12.75 1.4 19.0579 -63.5134 -8.84765
834 12.25 12.75 1.4 19.3039 -59.434 -6.86366
835 12.5 12.75 1.4 19.5499 -61.1264 30.754
836 12.75 12.75 1.4 19.796 -63.1058 11.8355
837 13 12.75 1.4 20.0422 -59.2372 -20.1797
838 13.25 12.75 1.4 20.2886 -59.0521 -7.27807
839 13.5 12.75 1.4 20.535 -62.8275 2.73192
840 13.75 12.75 1.4 20.7814 -58.042 -12.7379
841 14 12.75 1.4 21.028 -64.2607 63.1209
842 14.25 12.75 1.4 21.2747 -72.0782 -124.2
843 14.5 12.75 1.4 21.5214 -60.3284 -75.1386
844 14.75 12.75 1.4 21.7682 -62.2065 -53.9372
845 15 12.75 1.4 22.0151 -67.6513 -81.4813
846 15.25 12.75 1.4 22.262 -68.176 -5.9409
847 15.5 12.75 1.4 22.509 -65.4678 -3.36541
848 15.75 12.75 1.4 22.7561 -62.9398 48.9994
849 16 12.75 1.4 23.0033 -64.3403 150.286
850 16.25 12.75 1.4 23.2505 -66.1152 -155.614
851 16.5 12.75 1.4 23.4977 -68.7986 -65.9441
852 16.75 12.75 1.4 23.7451 -66.641 16.4264
853 17 12.75 1.4 23.9924 -70.1444 19.0836
854 17.25 12.75 1.4 24.2399 -69.1434 10.7896
855 17.5 12.75 1.4 24.4873 -66.0407 22.807
856 17.75 12.75 1.4 24.7349 -64.9771 70.7271
857 18 12.75 1.4 24.9825 -62.8239 102.393
858 18.25 12.75 1.4 25.2301 -66.1084 110.741
859 18.5 12.75 1.4 25.4778 -73.1102 173.909
860 18.75 12.75 1.4 25.7255 -69.9133 40.6547
861 19 12.75 1.4 25.9732 -69.0703 137.637
862 19.25 12.75 1.4 26.221 -80.2416 113.559
863 19.5 12.75 1.4 26.4689 -73.3004 113.02
864 19.75 12.75 1.4 26.7168 -67.1577 172.083
865 20 12.75 1.4 26.9647 -66.3287 -106.368
866 20.25 12.75 1.4 27.2127 -67.2915 -5.18474
867 20.5 12.75 1.4 27.4607 -93.8959 65.3724
868 20.75 12.75 1.4 27.7087 -66.6755 -119.492
869 21 12.75 1.4 27.9568 -64.4459 -114.215
870 21.25 12.75 1.4 28.2049 -69.2769 -99.87
871 21.5 12.75 1.4 28.453 -69.8691 -98.4671
872 21.75 12.75 1.4 28.7012 -65.8479 -94.6139
873 22 12.75 1.4 28.9494 -67.0259 -97.0426
874 22.25 12.75 1.4 29.1976 -72.2791 -127.8
875 22.5 12.75 1.4 29.4459 -67.8799 129.246
876 22.75 12.75 1.4 29.6942 -71.4186 131.432
877 23 12.75 1.4 29.9425 -67.3681 -178.799
878 23.25 12.75 1.4 30.1909 -71.8503 -129.085
879 23.5 12.75 1.4 30.4392 -76.135 -105.607
880 23.75 12.75 1.4 30.6877 -69.374 -118.096
881 24 12.75 1.4 30.9361 -67.7469 -102.465
882 24.25 12.75 1.4 31.1845 -71.271 -121.114
883 -7 13 1.4 3.20965 -42.8632 -139.313
884 -6.75 13 1.4 3.19937 -56.2829 170.024
885 -6.5 13 1.4 3.20859 -40.9663 -168.062
886 -6.25 13 1.4 3.23715 -43.8061 -176.533
887 -6 13 1.4 3.28454 -43.6726 3.11749
888 -5.75 13 1.4 3.34997 -48.8118 -113.151
889 -5.5 13 1.4 3.4324 -44.0632 -112.459
890 -5.25 13 1.4 3.53065 -44.7675 22.1153
891 -5 13 1.4 3.64343 -45.8882 12.542
892 -4.75 13 1.4 3.76944 -43.1946 37.3268
893 -4.5 13 1.4 3.9074 -49.8328 -71.4428
894 -4.25 13 1.4 4.05609 -49.0202 -56.8402
895 -4 13 1.4 4.21437 -42.208 151.492
896 -3.75 13 1.4 4.38121 -46.4833 5.53313
897 -3.5 13 1.4 4.55567 -53.5055 160.926
898 -3.25 13 1.4 4.7369 -53.0028 87.821
899 -3 13 1.4 4.92415 -47.7515 -128.291
900 -2.75 13 1.4 5.11677 -46.4362 15.782
901 -2.5 13 1.4 5.31418 -49.1616 141.478
902 -2.25 13 1.4 5.51585 -47.0781 -108.908
903 -2 13 1.4 5.72133 -49.3863 -25.3328
904 -1.75 13 1.4 5.93024 -47.5796 127.709
905 -1.5 13 1.4 6.14222 -51.4268 176.555
906 -1.25 13 1.4 6.35696 -56.0066 35.6436
907 -1 13 1.4 6.57419 -56.8578 23.6387
908 -0.75 13 1.4 6.79368 -59.8215 69.5846
909 -0.5 13 1.4 7.01521 -48.6302 126.936
910 -0.25 13 1.4 7.2386 -54.112 99.4212
911 -1.77636e-15 13 1.4 7.46367 -50.3625 -173.48
912 0.25 13 1.4 7.69028 -63.3908 65.9755
913 0.5 13 1.4 7.9183 -56.9607 -73.1789
914 0.75 13 1.4 8.14761 -66.1854 -22.293
915 1 13 1.4 8.37811 -58.9893 -112.653
916 1.25 13 1.4 8.60969 -52.9049 147.421
917 1.5 13 1.4 8.84228 -73.9746 -52.6173
918 1.75 13 1.4 9.07579 -60.5698 -130.094
919 2 13 1.4 9.31016 -57.3855 -125.374
920 2.25 13 1.4 9.54532 -59.8354 65.012
921 2.5 13 1.4 9.78122 -56.3614 64.9798
922 2.75 13 1.4 10.0178 -59.2617 -144.389
923 3 13 1.4 10.255 -61.4745 40.2992
924 3.25 13 1.4 10.4928 -52.9077 162.174
925 3.5 13 1.4 10.7312 -58.0259 -161.778
926 3.75 13 1.4 10.9701 -55.2608 -1.53923
927 4 13 1.4 11.2095 -59.7382 114.598
928 4.25 13 1.4 11.4493 -51.9556 -85.752
929 4.5 13 1.4 11.6895 -56.5498 -35.0194
930 4.75 13 1.4 11.9302 -60.5828 48.8325
931 5 13 1.4 12.1712 -77.1066 116.05
932 5.25 13 1.4 12.4126 -60.3279 -57.4255
933 5.5 13 1.4 12.6543 -57.89 -11.7682
934 5.75 13 1.4 12.8963 -62.8861 35.4729
935 6 13 1.4 13.1387 -62.5726 -61.5145
936 6.25 13 1.4 13.3813 -64.1856 -123.352
937 6.5 13 1.4 13.6242 -58.784 -95.0545
938 6.75 13 1.4 13.8673 -58.5745 -76.3293
939 7 13 1.4 14.1107 -72.1868 -20.1927
940 7.25 13 1.4 14.3543 -55.1653 -76.4753
941 7.5 13 1.4 14.5981 -66.64 -171.74
942 7.75 13 1.4 14.8421 -66.5022 174.399
943 8 13 1.4 15.0863 -55.3708 -112.238
944 8.25 13 1.4 15.3307 -56.4774 -61.3896
945 8.5 13 1.4 15.5753 -71.4437 36.0385
946 8.75 13 1.4 15.8201 -67.5912 -136.683
947 9 13 1.4 16.065 -65.7282 12.2332
948 9.25 13 1.4 16.31 -56.836 82.2797
949 9.5 13 1.4 16.5553 -58.0098 170.873
950 9.75 13 1.4 16.8006 -55.5456 -147.455
951 10 13 1.4 17.0461 -63.1954 -103.795
952 10.25 13 1.4 17.2917 -70.1886 133.966
953 10.5 13 1.4 17.5375 -65.5537 161.043
954 10.75 13 1.4 17.7833 -65.0843 -142.406
955 11 13 1.4 18.0293 -70.026 105.608
956 11.25 13 1.4 18.2754 -65.0653 179.473
957 11.5 13 1.4 18.5216 -62.578 -167.739
958 11.75 13 1.4 18.7679 -65.3465 -154.841
959 12 13 1.4 19.0143 -67.0768 120.565
960 12.25 13 1.4 19.2608 -67.7525 -3.34016
961 12.5 13 1.4 19.5073 -58.8289 55.769
962 12.75 13 1.4 19.754 -58.6802 114.969
963 13 13 1.4 20.0007 -68.6209 152.704
964 13.25 13 1.4 20.2475 -65.5305 66.0159
965 13.5 13 1.4 20.4944 -74.1963 94.0513
966 13.75 13 1.4 20.7414 -78.6675 134.344
967 14 13 1.4 20.9885 -65.826 25.6717
968 14.25 13 1.4 21.2356 -63.7926 114.925
969 14.5 13 1.4 21.4827 -66.3023 -127.385
970 14.75 13 1.4 21.73 -67.7494 -89.5971
971 15 13 1.4 21.9773 -76.0098 64.548
972 15.25 13 1.4 22.2247 -68.189 -104.353
973 15.5 13 1.4 22.4721 -88.1878 157.525
974 15.75 13 1.4 22.7196 -72.9301 68.6368
975 16 13 1.4 22.9671 -63.6552 108.413
976 16.25 13 1.4 23.2147 -65.502 -158.344
977 16.5 13 1.4 23.4623 -71.4553 -172.722
978 16.75 13 1.4 23.71 -70.0608 -109.647
979 17 13 1.4 23.9578 -67.4889 -150.321
980 17.25 13 1.4 24.2055 -65.7441 -120.359
981 17.5 13 1.4 24.4534 -63.007 -86.6146
982 17.75 13 1.4 24.7012 -69.852 -24.2304
983 18 13 1.4 24.9492 -73.411 -137.324
984 18.25 13 1.4 25.1971 -70.2157 -163.144
985 18.5 13 1.4 25.4451 -77.0436 150.252
986 18.75 13 1.4 25.6932 -86.4072 23.6228
987 19 13 1.4 25.9412 -71.9243 -129.916
988 19.25 13 1.4 26.1893 -69.8505 -101.388
989 19.5 13 1.4 26.4375 -69.1654 32.9422
990 19.75 13 1.4 26.6857 -68.4389 -121.135
991 20 13 1.4 26.9339 -68.0326 -86.8153
992 20.25 13 1.4 27.1821 -79.2792 108.869
993 20.5 13 1.4 27.4304 -66.2088 91.9857
994 20.75 13 1.4 27.6787 -67.1025 169.66
995 21 13 1.4 27.927 -75.0563 -35.551
996 21.25 13 1.4 28.1754 -75.1727 104.813
997 21.5 13 1.4 28.4238 -77.2246 83.1439
998 21.75 13 1.4 28.6722 -78.6433 -90.0239
999 22 13 1.4 28.9207 -79.8132 -151.539
1000 22.25 13 1.4 29.1692 -77.9562 -160.666
1001 22.5 13 1.4 29.4177 -74.8713 72.1881
1002 22.75 13 1.4 29.6662 -81.4222 117.831
1003 23 13 1.4 29.9148 -76.1513 -92.4109
1004 23.25 13 1.4 30.1633 -81.9722 136.933
1005 23.5 13 1.4 30.4119 -67.2743 91.4988
1006 23.75 13 1.4 30.6606 -77.4535 59.2878
1007 24 13 1.4 30.9092 -86.62 -130.169
1008 24.25 13 1.4 31.1579 -70.5236 -17.6293
1009 -7 13.25 1.4 2.96052 -40.7477 -114.971
1010 -6.75 13.25 1.4 2.94937 -54.8331 -46.9653
1011 -6.5 13.25 1.4 2.95937 -42.3598 -166.725
1012 -6.25 13.25 1.4 2.99031 -41.0585 171.033
1013 -6 13.25 1.4 3.04155 -50.3885 25.9401
1014 -5.75 13.25 1.4 3.11209 -41.7168 -175.224
1015 -5.5 13.25 1.4 3.20066 -45.4951 -127.515
1016 -5.25 13.25 1.4 3.3058 -46.1238 -52.7884
1017 -5 13.25 1.4 3.42599 -41.9201 -54.8819
1018 -4.75 13.25 1.4 3.5597 -51.007 -117.075
1019 -4.5 13.25 1.4 3.70548 -44.1844 -102.092
1020 -4.25 13.25 1.4 3.86195 -46.7806 113.323
1021 -4 13.25 1.4 4.02787 -45.2425 -63.1379
1022 -3.75 13.25 1.4 4.20212 -53.5977 168.237
1023 -3.5 13.25 1.4 4.38371 -53.9797 20.0466
1024 -3.25 13.25 1.4 4.57176 -48.4149 -145.817
1025 -3 13.25 1.4 4.76551 -43.7534 -55.7942
1026 -2.75 13.25 1.4 4.96429 -47.8526 92.1633
1027 -2.5 13.25 1.4 5.16752 -46.9557 -169.543
1028 -2.25 13.25 1.4 5.3747 -48.1026 -42.6731
1029 -2 13.25 1.4 5.58538 -51.8252 -9.93967
1030 -1.75 13.25 1.4 5.79919 -71.5683 -136.142
1031 -1.5 13.25 1.4 6.01578 -49.5956 -94.7112
1032 -1.25 13.25 1.4 6.23488 -52.8817 -121.599
1033 -1 13.25 1.4 6.45622 -58.3086 7.19449
1034 -0.75 13.25 1.4 6.67959 -51.2514 -4.51352
1035 -0.5 13.25 1.4 6.90478 -55.2397 0.397882
1036 -0.25 13.25 1.4 7.13163 -64.5708 64.3095
1037 -1.77636e-15 13.25 1.4 7.35997 -53.888 26.9903
1038 0.25 13.25 1.4 7.58968 -54.2445 -90.3462
1039 0.5 13.25 1.4 7.82064 -61.5913 158.626
1040 0.75 13.25 1.4 8.05273 -53.3528 -9.47737
1041 1 13.25 1.4 8.28586 -54.2759 61.0251
1042 1.25 13.25 1.4 8.51995 -55.2563 -13.0578
1043 1.5 13.25 1.4 8.75493 -56.7822 -134.661
1044 1.75 13.25 1.4 8.99071 -60.7845 -163.705
1045 2 13.25 1.4 9.22724 -58.9125 -172.49
1046 2.25 13.25 1.4 9.46446 -59.0402 -17.1674
1047 2.5 13.25 1.4 9.70232 -61.123 128.769
1048 2.75 13.25 1.4 9.94078 -68.7115 70.8285
1049 3 13.25 1.4 10.1798 -64.2112 -101.527
1050 3.25 13.25 1.4 10.4193 -53.5784 60.4536
1051 3.5 13.25 1.4 10.6593 -57.6608 -168.213
1052 3.75 13.25 1.4 10.8998 -66.6765 -95.0564
1053 4 13.25 1.4 11.1407 -53.9003 90.096
1054 4.25 13.25 1.4 11.3819 -52.376 146.598
1055 4.5 13.25 1.4 11.6236 -68.5223 -75.9625
1056 4.75 13.25 1.4 11.8656 -59.5147 95.9528
1057 5 13.25 1.4 12.1079 -52.2577 120.548
1058 5.25 13.25 1.4 12.3505 -62.991 76.4798
1059 5.5 13.25 1.4 12.5934 -60.1851 32.8491
1060 5.75 13.25 1.4 12.8366 -57.3255 72.5698
1061 6 13.25 1.4 13.08 -55.2348 82.7383
1062 6.25 13.25 1.4 13.3237 -64.7105 98.9286
1063 6.5 13.25 1.4 13.5676 -62.2332 29.582
1064 6.75 13.25 1.4 13.8118 -61.8385 56.0313
1065 7 13.25 1.4 14.0561 -59.6158 -138.658
1066 7.25 13.25 1.4 14.3006 -60.4763 109.104
1067 7.5 13.25 1.4 14.5453 -58.8371 43.1155
1068 7.75 13.25 1.4 14.7902 -59.0565 -167.312
1069 8 13.25 1.4 15.0353 -58.9789 -62.6161
1070 8.25 13.25 1.4 15.2805 -56.395 22.7709
1071 8.5 13.25 1.4 15.5259 -63.1145 65.5083
1072 8.75 13.25 1.4 15.7714 -75.5747 11.9769
1073 9 13.25 1.4 16.0171 -58.5539 17.4614
1074 9.25 13.25 1.4 16.2629 -60.1164 94.5846
1075 9.5 13.25 1.4 16.5088 -63.4794 161.541
1076 9.75 13.25 1.4 16.7548 -57.011 -70.1214
1077 10 13.25 1.4 17.001 -57.0154 -32.8364
1078 10.25 13.25 1.4 17.2472 -60.6769 3.31209
1079 10.5 13.25 1.4 17.4936 -72.1359 9.32291
1080 10.75 13.25 1.4 17.7401 -60.8499 -9.74578
1081 11 13.25 1.4 17.9866 -68.6641 -67.3579
1082 11.25 13.25 1.4 18.2333 -68.2088 -142.601
1083 11.5 13.25 1.4 18.4801 -61.7962 -169.932
1084 11.75 13.25 1.4 18.7269 -60.2392 -133.127
1085 12 13.25 1.4 18.9738 -61.1969 -111.36
1086 12.25 13.25 1.4 19.2208 -69.1491 -112.864
1087 12.5 13.25 1.4 19.4679 -75.138 -137.744
1088 12.75 13.25 1.4 19.715 -65.9074 144.564
1089 13 13.25 1.4 19.9623 -61.8038 -173.386
1090 13.25 13.25 1.4 20.2095 -63.6638 -118.08
1091 13.5 13.25 1.4 20.4569 -63.2996 -79.1127
1092 13.75 13.25 1.4 20.7043 -61.5384 -56.2669
1093 14 13.25 1.4 20.9518 -59.0852 -43.5496
1094 14.25 13.25 1.4 21.1993 -62.56 5.05356
1095 14.5 13.25 1.4 21.4469 -65.2081 114.375
1096 14.75 13.25 1.4 21.6946 -73.031 80.9309
1097 15 13.25 1.4 21.9423 -71.5364 75.3016
1098 15.25 13.25 1.4 22.1901 -65.0606 112.223
1099 15.5 13.25 1.4 22.4379 -71.4067 -24.4722
1100 15.75 13.25 1.4 22.6857 -64.2298 -8.39913
1101 16 13.25 1.4 22.9336 -61.3282 20.1596
1102 16.25 13.25 1.4 23.1816 -65.8237 60.1205
1103 16.5 13.25 1.4 23.4296 -68.5836 -1.96594
1104 16.75 13.25 1.4 23.6776 -60.4474 34.122
1105 17 13.25 1.4 23.9257 -69.3633 66.9119
1106 17.25 13.25 1.4 24.1738 -73.2359 -121.149
1107 17.5 13.25 1.4 24.4219 -63.2119 -54.7912
1108 17.75 13.25 1.4 24.6701 -74.5198 -28.3447
1109 18 13.25 1.4 24.9183 -68.0639 87.2159
1110 18.25 13.25 1.4 25.1666 -74.9348 -153.188
1111 18.5 13.25 1.4 25.4149 -76.5769 81.0867
1112 18.75 13.25 1.4 25.6632 -78.0539 85.4644
1113 19 13.25 1.4 25.9116 -69.6618 149.562
1114 19.25 13.25 1.4 26.16 -68.6475 110.72
1115 19.5 13.25 1.4 26.4084 -65.224 119.755
1116 19.75 13.25 1.4 26.6568 -66.9906 123.125
1117 20 13.25 1.4 26.9053 -83.6128 124.137
1118 20.25 13.25 1.4 27.1538 -67.5059 90.1025
1119 20.5 13.25 1.4 27.4024 -65.5811 122.523
1120 20.75 13.25 1.4 27.6509 -69.7267 147.502
1121 21 13.25 1.4 27.8995 -74.2427 166.78
1122 21.25 13.25 1.4 28.1481 -81.8854 -76.5177
1123 21.5 13.25 1.4 28.3968 -80.0973 57.1164
1124 21.75 13.25 1.4 28.6454 -71.6038 -44.9105
1125 22 13.25 1.4 28.8941 -70.5032 -107.971
1126 22.25 13.25 1.4 29.1428 -66.0255 -68.9601
1127 22.5 13.25 1.4 29.3915 -70.1101 -82.1397
1128 22.75 13.25 1.4 29.6403 -64.6424 -73.2626
1129 23 13.25 1.4 29.8891 -63.9418 -80.1734
1130 23.25 13.25 1.4 30.1378 -65.8705 -60.4723
1131 23.5 13.25 1.4 30.3867 -69.7437 -104.423
1132 23.75 13.25 1.4 30.6355 -74.0532 -168.692
1133 24 13.25 1.4 30.8843 -75.2061 -121.314
1134 24.25 13.25 1.4 31.1332 -79.3149 -97.96
1135 -7 13.5 1.4 2.71155 -40.7039 -91.9705
1136 -6.75 13.5 1.4 2.69937 -42.2938 -15.727
1137 -6.5 13.5 1.4 2.71029 -67.236 96.6566
1138 -6.25 13.5 1.4 2.74404 -40.6643 161.994
1139 -6 13.5 1.4 2.7998 -44.226 59.608
1140 -5.75 13.5 1.4 2.87627 -46.8228 111.419
1141 -5.5 13.5 1.4 2.97187 -42.4084 -156.886
1142 -5.25 13.5 1.4 3.08482 -44.4174 -83.5066
1143 -5 13.5 1.4 3.21329 -47.2151 -141.3
1144 -4.75 13.5 1.4 3.35549 -47.2568 151.211
1145 -4.5 13.5 1.4 3.50976 -44.8255 76.1939
1146 -4.25 13.5 1.4 3.67457 -45.6327 -70.5639
1147 -4 13.5 1.4 3.84858 -52.41 122.957
1148 -3.75 13.5 1.4 4.03059 -47.2759 7.16543
1149 -3.5 13.5 1.4 4.21957 -46.4441 142.329
1150 -3.25 13.5 1.4 4.41462 -47.2656 -72.8673
1151 -3 13.5 1.4 4.61497 -47.6033 26.4331
1152 -2.75 13.5 1.4 4.81996 -47.0543 123.751
1153 -2.5 13.5 1.4 5.02903 -54.2378 -121.172
1154 -2.25 13.5 1.4 5.24168 -52.2173 40.9528
1155 -2 13.5 1.4 5.4575 -48.5398 106.658
1156 -1.75 13.5 1.4 5.67612 -57.4183 96.0149
1157 -1.5 13.5 1.4 5.89724 -60.6525 157.554
1158 -1.25 13.5 1.4 6.12058 -57.8634 -133.011
1159 -1 13.5 1.4 6.34592 -52.7787 -134.199
1160 -0.75 13.5 1.4 6.57303 -64.6556 80.2251
1161 -0.5 13.5 1.4 6.80175 -56.8552 23.0671
1162 -0.25 13.5 1.4 7.03192 -57.8967 -16.8142
1163 -1.77636e-15 13.5 1.4 7.2634 -52.565 -157.919
1164 0.25 13.5 1.4 7.49607 -55.4097 117.702
1165 0.5 13.5 1.4 7.72982 -64.2801 -67.6656
1166 0.75 13.5 1.4 7.96456 -54.7058 64.7634
1167 1 13.5 1.4 8.2002 -57.4194 -14.5549
1168 1.25 13.5 1.4 8.43667 -58.4001 165.613
1169 1.5 13.5 1.4 8.6739 -58.4616 96.0727
1170 1.75 13.5 1.4 8.91182 -73.3416 149.108
1171 2 13.5 1.4 9.15039 -60.6955 -31.1078
1172 2.25 13.5 1.4 9.38956 -60.0113 -139.466
1173 2.5 13.5 1.4 9.62927 -59.0187 -64.6024
1174 2.75 13.5 1.4 9.8695 -57.5237 -149.689
1175 3 13.5 1.4 10.1102 -62.0458 -58.6103
1176 3.25 13.5 1.4 10.3513 -56.643 -34.2773
1177 3.5 13.5 1.4 10.5929 -62.8911 -0.369606
1178 3.75 13.5 1.4 10.8348 -57.3676 -109.502
1179 4 13.5 1.4 11.0771 -58.5354 -50.6559
1180 4.25 13.5 1.4 11.3197 -59.6196 149.797
1181 4.5 13.5 1.4 11.5627 -55.1388 -147.89
1182 4.75 13.5 1.4 11.8059 -54.7963 -31.1559
1183 5 13.5 1.4 12.0494 -60.3293 -108.612
1184 5.25 13.5 1.4 12.2932 -51.8795 -148.808
1185 5.5 13.5 1.4 12.5372 -57.5688 -108.163
1186 5.75 13.5 1.4 12.7815 -64.7062 21.9841
1187 6 13.5 1.4 13.0259 -62.6108 155.238
1188 6.25 13.5 1.4 13.2706 -66.6032 -121.478
1189 6.5 13.5 1.4 13.5155 -63.6954 17.6777
1190 6.75 13.5 1.4 13.7605 -60.4896 177.023
1191 7 13.5 1.4 14.0058 -70.4759 -172.41
1192 7.25 13.5 1.4 14.2512 -60.6345 -43.799
1193 7.5 13.5 1.4 14.4967 -62.5312 136.89
1194 7.75 13.5 1.4 14.7424 -62.3094 -115.164
1195 8 13.5 1.4 14.9883 -61.4623 -54.0577
1196 8.25 13.5 1.4 15.2342 -62.2475 77.6413
1197 8.5 13.5 1.4 15.4803 -58.6971 152.063
1198 8.75 13.5 1.4 15.7266 -76.8478 -92.8561
1199 9 13.5 1.4 15.9729 -66.5352 70.8382
1200 9.25 13.5 1.4 16.2194 -65.3102 97.9651
1201 9.5 13.5 1.4 16.4659 -63.9891 -131.09
1202 9.75 13.5 1.4 16.7126 -64.4948 -7.6806
1203 10 13.5 1.4 16.9594 -56.1056 28.6322
1204 10.25 13.5 1.4 17.2062 -60.6845 71.2874
1205 10.5 13.5 1.4 17.4532 -66.1402 98.6111
1206 10.75 13.5 1.4 17.7002 -66.619 -174.372
1207 11 13.5 1.4 17.9473 -69.9343 39.2906
1208 11.25 13.5 1.4 18.1945 -63.6984 16.6483
1209 11.5 13.5 1.4 18.4418 -71.6833 11.5611
1210 11.75 13.5 1.4 18.6891 -70.8943 -152.539
1211 12 13.5 1.4 18.9366 -67.332 -52.2011
1212 12.25 13.5 1.4 19.184 -64.8971 46.5828
1213 12.5 13.5 1.4 19.4316 -80.7708 -24.2519
1214 12.75 13.5 1.4 19.6792 -71.0512 32.4165
1215 13 13.5 1.4 19.9269 -67.9914 115.957
1216 13.25 13.5 1.4 20.1746 -66.8831 173.587
1217 13.5 13.5 1.4 20.4224 -70.7372 -59.0238
1218 13.75 13.5 1.4 20.6702 -75.0324 -45.7545
1219 14 13.5 1.4 20.9181 -73.2207 -98.2845
1220 14.25 13.5 1.4 21.166 -69.4808 3.04044
1221 14.5 13.5 1.4 21.414 -61.5935 86.4563
1222 14.75 13.5 1.4 21.662 -63.379 148.535
1223 15 13.5 1.4 21.9101 -70.1077 158.512
1224 15.25 13.5 1.4 22.1582 -62.8084 169.668
1225 15.5 13.5 1.4 22.4064 -64.1633 -147.539
1226 15.75 13.5 1.4 22.6546 -60.7354 -96.146
1227 16 13.5 1.4 22.9028 -69.3665 -56.7572
1228 16.25 13.5 1.4 23.1511 -68.3323 -120.186
1229 16.5 13.5 1.4 23.3994 -76.2827 57.4656
1230 16.75 13.5 1.4 23.6477 -64.5029 49.2552
1231 17 13.5 1.4 23.8961 -63.4821 103.002
1232 17.25 13.5 1.4 24.1445 -66.7588 -169.467
1233 17.5 13.5 1.4 24.393 -70.5936 -95.2724
1234 17.75 13.5 1.4 24.6415 -73.356 35.844
1235 18 13.5 1.4 24.89 -83.4268 11.6997
1236 18.25 13.5 1.4 25.1385 -75.3788 -164.197
1237 18.5 13.5 1.4 25.3871 -76.7081 -137.423
1238 18.75 13.5 1.4 25.6357 -65.329 -122.059
1239 19 13.5 1.4 25.8843 -65.6284 -79.2578
1240 19.25 13.5 1.4 26.133 -74.1766 -144.474
1241 19.5 13.5 1.4 26.3816 -66.0882 -113.427
1242 19.75 13.5 1.4 26.6303 -62.0469 -86.5968
1243 20 13.5 1.4 26.8791 -66.4879 -33.6183
1244 20.25 13.5 1.4 27.1278 -68.1406 -105.117
1245 20.5 13.5 1.4 27.3766 -69.3697 -51.2107
1246 20.75 13.5 1.4 27.6254 -72.1253 -164.613
1247 21 13.5 1.4 27.8742 -71.444 -55.1283
1248 21.25 13.5 1.4 28.123 -74.9952 175.458
1249 21.5 13.5 1.4 28.3719 -69.2918 26.669
1250 21.75 13.5 1.4 28.6208 -78.1928 -99.1708
1251 22 13.5 1.4 28.8697 -67.5613 -153.288
1252 22.25 13.5 1.4 29.1186 -72.3353 155.587
1253 22.5 13.5 1.4 29.3675 -69.3805 -163.446
1254 22.75 13.5 1.4 29.6165 -70.6011 -137.969
1255 23 13.5 1.4 29.8654 -76.956 -117.012
1256 23.25 13.5 1.4 30.1144 -90.504 59.1153
1257 23.5 13.5 1.4 30.3634 -78.8923 108.127
1258 23.75 13.5 1.4 30.6124 -72.068 144.554
1259 24 13.5 1.4 30.8615 -73.5036 129.408
1260 24.25 13.5 1.4 31.1105 -73.0787 -176.589
1261 -7 13.75 1.4 2.46279 -40.2727 -98.9997
1262 -6.75 13.75 1.4 2.44937 -40.5929 -16.3974
1263 -6.5 13.75 1.4 2.4614 -49.5355 -11.9385
1264 -6.25 13.75 1.4 2.49852 -45.6964 132.46
1265 -6 13.75 1.4 2.55963 -39.9927 -3.78508
1266 -5.75 13.75 1.4 2.64306 -47.3653 119.668
1267 -5.5 13.75 1.4 2.74679 -42.7553 -168.686
1268 -5.25 13.75 1.4 2.86861 -47.0034 121.476
1269 -5 13.75 1.4 3.00633 -48.9519 -170.162
1270 -4.75 13.75 1.4 3.15787 -43.5877 56.0702
1271 -4.5 13.75 1.4 3.32133 -41.5283 -112.142
1272 -4.25 13.75 1.4 3.49504 -53.3565 77.9205
1273 -4 13.75 1.4 3.67755 -45.6137 -34.359
1274 -3.75 13.75 1.4 3.86762 -46.7498 74.2229
1275 -3.5 13.75 1.4 4.06418 -44.8373 -127.75
1276 -3.25 13.75 1.4 4.26634 -46.5615 -17.7382
1277 -3 13.75 1.4 4.47334 -50.1354 97.0069
1278 -2.75 13.75 1.4 4.68453 -49.6043 -157.157
1279 -2.5 13.75 1.4 4.89938 -49.662 -56.8713
1280 -2.25 13.75 1.4 5.11742 -61.7693 -67.5829
1281 -2 13.75 1.4 5.33827 -68.5109 -155.572
1282 -1.75 13.75 1.4 5.56158 -56.9872 126.189
1283 -1.5 13.75 1.4 5.78708 -53.6562 144.317
1284 -1.25 13.75 1.4 6.01451 -75.1556 175.72
1285 -1 13.75 1.4 6.24367 -56.1086 -84.6013
1286 -0.75 13.75 1.4 6.47438 -49.1933 -102.389
1287 -0.5 13.75 1.4 6.70646 -56.3273 178.688
1288 -0.25 13.75 1.4 6.93979 -55.4833 131.613
1289 -1.77636e-15 13.75 1.4 7.17425 -60.137 138.166
1290 0.25 13.75 1.4 7.40972 -59.2739 -164.435
1291 0.5 13.75 1.4 7.64611 -60.5002 124.978
1292 0.75 13.75 1.4 7.88334 -56.1444 -67.8444
1293 1 13.75 1.4 8.12134 -52.0649 157.281
1294 1.25 13.75 1.4 8.36004 -53.3973 63.1063
1295 1.5 13.75 1.4 8.59938 -60.2755 83.6678
1296 1.75 13.75 1.4 8.83931 -60.2743 72.9813
1297 2 13.75 1.4 9.07979 -54.2157 97.2019
1298 2.25 13.75 1.4 9.32076 -59.4078 60.7694
1299 2.5 13.75 1.4 9.5622 -56.035 117.956
1300 2.75 13.75 1.4 9.80407 -61.5824 22.2276
1301 3 13.75 1.4 10.0463 -59.2623 165.532
1302 3.25 13.75 1.4 10.289 -71.6408 79.212
1303 3.5 13.75 1.4 10.532 -54.7122 63.068
1304 3.75 13.75 1.4 10.7753 -55.1243 70.9627
1305 4 13.75 1.4 11.0189 -56.4923 -15.264
1306 4.25 13.75 1.4 11.2627 -53.5526 24.1893
1307 4.5 13.75 1.4 11.5069 -60.5045 137.275
1308 4.75 13.75 1.4 11.7513 -60.2179 -105.023
1309 5 13.75 1.4 11.9959 -56.1512 61.0962
1310 5.25 13.75 1.4 12.2407 -60.9236 -163.999
1311 5.5 13.75 1.4 12.4858 -57.7846 -112.373
1312 5.75 13.75 1.4 12.731 -57.5561 43.1403
1313 6 13.75 1.4 12.9764 -65.6101 39.5402
1314 6.25 13.75 1.4 13.222 -80.3934 25.9834
1315 6.5 13.75 1.4 13.4678 -64.4764 112.486
1316 6.75 13.75 1.4 13.7137 -63.6474 -14.0496
1317 7 13.75 1.4 13.9597 -57.3379 -31.4568
1318 7.25 13.75 1.4 14.2059 -62.0177 82.7737
1319 7.5 13.75 1.4 14.4522 -59.7791 -66.776
1320 7.75 13.75 1.4 14.6987 -55.6134 -50.5571
1321 8 13.75 1.4 14.9453 -58.8682 -9.60329
1322 8.25 13.75 1.4 15.1919 -74.9404 71.864
1323 8.5 13.75 1.4 15.4387 -63.4449 -156.702
1324 8.75 13.75 1.4 15.6856 -69.4276 -114.241
1325 9 13.75 1.4 15.9326 -69.6985 16.8584
1326 9.25 13.75 1.4 16.1797 -63.0523 -148.479
1327 9.5 13.75 1.4 16.4268 -70.5458 -142.308
1328 9.75 13.75 1.4 16.6741 -60.8332 -22.8918
1329 10 13.75 1.4 16.9214 -61.7899 83.2826
1330 10.25 13.75 1.4 17.1688 -70.0838 87.9616
1331 10.5 13.75 1.4 17.4163 -63.7453 162.146
1332 10.75 13.75 1.4 17.6638 -60.4868 -119.467
1333 11 13.75 1.4 17.9114 -60.6114 -103.49
1334 11.25 13.75 1.4 18.1591 -68.1435 -12.4063
1335 11.5 13.75 1.4 18.4069 -62.5867 56.911
1336 11.75 13.75 1.4 18.6547 -65.9987 110.911
1337 12 13.75 1.4 18.9025 -63.1462 105.487
1338 12.25 13.75 1.4 19.1505 -64.8243 82.4415
1339 12.5 13.75 1.4 19.3984 -68.4536 56.0828
1340 12.75 13.75 1.4 19.6465 -72.8842 35.7612
1341 13 13.75 1.4 19.8945 -67.5174 6.76625
1342 13.25 13.75 1.4 20.1427 -73.9225 90.2177
1343 13.5 13.75 1.4 20.3908 -66.0694 -120.628
1344 13.75 13.75 1.4 20.639 -81.7845 -116.847
1345 14 13.75 1.4 20.8873 -61.8598 -108.24
1346 14.25 13.75 1.4 21.1356 -60.3684 -88.0434
1347 14.5 13.75 1.4 21.3839 -61.0177 -55.6077
1348 14.75 13.75 1.4 21.6323 -73.6224 11.0605
1349 15 13.75 1.4 21.8807 -68.3698 -60.211
1350 15.25 13.75 1.4 22.1291 -67.2042 7.52929
1351 15.5 13.75 1.4 22.3776 -77.7996 -173.527
1352 15.75 13.75 1.4 22.6261 -90.545 98.3755
1353 16 13.75 1.4 22.8747 -67.6828 11.4253
1354 16.25 13.75 1.4 23.1233 -82.7276 132.13
1355 16.5 13.75 1.4 23.3719 -70.9643 21.9323
1356 16.75 13.75 1.4 23.6205 -67.8299 82.785
1357 17 13.75 1.4 23.8692 -63.0242 109.516
1358 17.25 13.75 1.4 24.1179 -77.5887 -50.7197
1359 17.5 13.75 1.4 24.3666 -70.8552 -43.8262
1360 17.75 13.75 1.4 24.6153 -69.8004 -35.7528
1361 18 13.75 1.4 24.8641 -62.8935 -11.9312
1362 18.25 13.75 1.4 25.1129 -66.9568 22.039
1363 18.5 13.75 1.4 25.3617 -70.6068 -12.0751
1364 18.75 13.75 1.4 25.6106 -65.2363 -32.9552
1365 19 13.75 1.4 25.8594 -67.4543 36.1917
1366 19.25 13.75 1.4 26.1083 -72.0955 128.665
1367 19.5 13.75 1.4 26.3572 -69.8893 167.396
1368 19.75 13.75 1.4 26.6062 -70.9887 107.3
1369 20 13.75 1.4 26.8551 -67.7157 109.003
1370 20.25 13.75 1.4 27.1041 -64.035 118.634
1371 20.5 13.75 1.4 27.3531 -71.7291 -170.68
1372 20.75 13.75 1.4 27.6021 -73.4875 1.43988
1373 21 13.75 1.4 27.8511 -64.5379 -169.568
1374 21.25 13.75 1.4 28.1001 -67.976 130.667
1375 21.5 13.75 1.4 28.3492 -81.2473 118.968
1376 21.75 13.75 1.4 28.5983 -69.2431 133.423
1377 22 13.75 1.4 28.8474 -67.933 135.204
1378 22.25 13.75 1.4 29.0965 -67.6522 145.162
1379 22.5 13.75 1.4 29.3456 -75.9934 81.9411
1380 22.75 13.75 1.4 29.5947 -86.8214 -98.1283
1381 23 13.75 1.4 29.8439 -75.1405 -44.3485
1382 23.25 13.75 1.4 30.093 -73.4852 0.75479
1383 23.5 13.75 1.4 30.3422 -75.9523 -8.78517
1384 23.75 13.75 1.4 30.5914 -76.0926 -7.45581
1385 24 13.75 1.4 30.8406 -81.7788 39.6421
1386 24.25 13.75 1.4 31.0898 -73.9774 -19.0098
1387 -7 14 1.4 2.2143 -38.6231 -77.8087
1388 -6.75 14 1.4 2.19937 -38.5043 -24.287
1389 -6.5 14 1.4 2.21276 -38.31 -32.6487
1390 -6.25 14 1.4 2.25398 -46.2427 -125.892
1391 -6 14 1.4 2.32153 -43.575 -17.7625
1392 -5.75 14 1.4 2.41321 -46.8379 62.3517
1393 -5.5 14 1.4 2.5264 -40.8298 93.0884
1394 -5.25 14 1.4 2.65834 -43.9748 75.0026
1395 -5 14 1.4 2.8064 -41.5409 -12.4053
1396 -4.75 14 1.4 2.96816 -41.1267 -178.027
1397 -4.5 14 1.4 3.1415 -54.087 96.9519
1398 -4.25 14 1.4 3.32462 -48.2756 -49.8872
1399 -4 14 1.4 3.51599 -41.3368 60.0991
1400 -3.75 14 1.4 3.71434 -48.8641 142.557
1401 -3.5 14 1.4 3.9186 -52.7192 -60.7714
1402 -3.25 14 1.4 4.12789 -44.8397 51.812
1403 -3 14 1.4 4.34149 -47.0914 131.775
1404 -2.75 14 1.4 4.5588 -58.9913 139.492
1405 -2.5 14 1.4 4.7793 -61.2653 -148.027
1406 -2.25 14 1.4 5.00258 -62.0246 -61.7308
1407 -2 14 1.4 5.22828 -57.2811 -18.6531
1408 -1.75 14 1.4 5.4561 -56.6911 -20.3946
1409 -1.5 14 1.4 5.68578 -68.9743 139.935
1410 -1.25 14 1.4 5.91711 -56.7353 -165.899
1411 -1 14 1.4 6.1499 -62.2601 -151.734
1412 -0.75 14 1.4 6.38399 -59.465 -3.74564
1413 -0.5 14 1.4 6.61925 -54.5797 -26.8485
1414 -0.25 14 1.4 6.85555 -65.6258 9.39383
1415 -1.77636e-15 14 1.4 7.09279 -63.8115 123.683
1416 0.25 14 1.4 7.33088 -53.8566 -67.6437
1417 0.5 14 1.4 7.56973 -52.8778 -113.381
1418 0.75 14 1.4 7.80928 -52.3293 157.704
1419 1 14 1.4 8.04947 -56.7319 -39.4065
1420 1.25 14 1.4 8.29024 -52.1811 -115.558
1421 1.5 14 1.4 8.53154 -62.0833 -67.7448
1422 1.75 14 1.4 8.77333 -61.0529 154.918
1423 2 14 1.4 9.01556 -58.7546 -144.221
1424 2.25 14 1.4 9.25821 -56.5071 172.489
1425 2.5 14 1.4 9.50124 -65.7041 -156.345
1426 2.75 14 1.4 9.74462 -58.2815 -172.307
1427 3 14 1.4 9.98833 -64.9822 -178.356
1428 3.25 14 1.4 10.2323 -58.1703 -137.385
1429 3.5 14 1.4 10.4766 -64.3773 -105.338
1430 3.75 14 1.4 10.7212 -60.561 123.557
1431 4 14 1.4 10.966 -68.8257 159.884
1432 4.25 14 1.4 11.211 -58.3547 -30.1829
1433 4.5 14 1.4 11.4563 -66.2972 87.8676
1434 4.75 14 1.4 11.7017 -58.0315 -152.898
1435 5 14 1.4 11.9474 -64.3898 -96.4955
1436 5.25 14 1.4 12.1932 -56.6221 63.7882
1437 5.5 14 1.4 12.4392 -66.9553 166.52
1438 5.75 14 1.4 12.6853 -56.2386 -113.435
1439 6 14 1.4 12.9316 -64.8472 84.2171
1440 6.25 14 1.4 13.178 -57.7614 86.869
1441 6.5 14 1.4 13.4246 -66.6421 -142.491
1442 6.75 14 1.4 13.6712 -57.2001 -91.5961
1443 7 14 1.4 13.9181 -58.4279 41.9994
1444 7.25 14 1.4 14.165 -61.4485 124.298
1445 7.5 14 1.4 14.412 -66.4747 -84.6478
1446 7.75 14 1.4 14.6591 -55.6494 2.60334
1447 8 14 1.4 14.9063 -63.5295 44.7285
1448 8.25 14 1.4 15.1536 -61.657 130.876
1449 8.5 14 1.4 15.401 -68.332 -170.256
1450 8.75 14 1.4 15.6485 -74.3303 47.4666
1451 9 14 1.4 15.8961 -67.8018 -177.262
1452 9.25 14 1.4 16.1437 -79.6021 -156.164
1453 9.5 14 1.4 16.3914 -67.4207 -52.8514
1454 9.75 14 1.4 16.6392 -63.1243 100.359
1455 10 14 1.4 16.887 -70.5994 100.837
1456 10.25 14 1.4 17.1349 -62.0321 162.959
1457 10.5 14 1.4 17.3829 -59.3593 170.879
1458 10.75 14 1.4 17.6309 -60.4764 -111.953
1459 11 14 1.4 17.879 -59.0584 -48.3663
1460 11.25 14 1.4 18.1271 -66.6107 -3.31048
1461 11.5 14 1.4 18.3753 -60.4914 65.5917
1462 11.75 14 1.4 18.6235 -58.4891 97.0298
1463 12 14 1.4 18.8718 -61.0446 145.03
1464 12.25 14 1.4 19.1201 -64.7648 -159.851
1465 12.5 14 1.4 19.3685 -64.804 -109.649
1466 12.75 14 1.4 19.6169 -63.029 -46.5877
1467 13 14 1.4 19.8653 -64.8735 -22.8662
1468 13.25 14 1.4 20.1138 -70.3342 16.208
1469 13.5 14 1.4 20.3623 -62.8223 101.086
1470 13.75 14 1.4 20.6109 -69.0715 -165.111
1471 14 14 1.4 20.8594 -64.4632 -161.747
1472 14.25 14 1.4 21.1081 -61.7526 -105.597
1473 14.5 14 1.4 21.3567 -70.4417 -70.707
1474 14.75 14 1.4 21.6054 -67.9005 4.81152
1475 15 14 1.4 21.8541 -74.912 54.1002
1476 15.25 14 1.4 22.1029 -75.6412 51.853
1477 15.5 14 1.4 22.3516 -63.5194 85.0561
1478 15.75 14 1.4 22.6004 -59.3479 142.367
1479 16 14 1.4 22.8493 -65.011 -177.537
1480 16.25 14 1.4 23.0981 -71.9027 91.5932
1481 16.5 14 1.4 23.347 -70.6151 164.305
1482 16.75 14 1.4 23.5959 -71.6067 -174.594
1483 17 14 1.4 23.8448 -66.9866 -123.335
1484 17.25 14 1.4 24.0938 -71.6569 52.4952
1485 17.5 14 1.4 24.3427 -64.1195 -163.468
1486 17.75 14 1.4 24.5917 -65.2285 -73.7737
1487 18 14 1.4 24.8407 -65.8235 -7.46823
1488 18.25 14 1.4 25.0898 -70.7968 171.721
1489 18.5 14 1.4 25.3388 -66.5074 -162.569
1490 18.75 14 1.4 25.5879 -71.7828 -100.004
1491 19 14 1.4 25.837 -69.214 -162.457
1492 19.25 14 1.4 26.0861 -63.8184 147.011
1493 19.5 14 1.4 26.3352 -68.9336 -115.535
1494 19.75 14 1.4 26.5843 -67.8821 -78.057
1495 20 14 1.4 26.8335 -77.0444 -37.2802
1496 20.25 14 1.4 27.0826 -70.4245 -122.054
1497 20.5 14 1.4 27.3318 -73.166 -104.519
1498 20.75 14 1.4 27.581 -70.7095 -119.143
1499 21 14 1.4 27.8302 -83.2879 108.705
1500 21.25 14 1.4 28.0794 -75.385 -77.1056
1501 21.5 14 1.4 28.3287 -70.4368 -62.838
1502 21.75 14 1.4 28.5779 -69.231 -16.6349
1503 22 14 1.4 28.8272 -79.1693 -59.6091
1504 22.25 14 1.4 29.0765 -68.6461 -44.388
1505 22.5 14 1.4 29.3258 -80.5543 -125.015
1506 22.75 14 1.4 29.5751 -69.3762 -29.8908
1507 23 14 1.4 29.8244 -73.5634 -51.8933
1508 23.25 14 1.4 30.0737 -77.576 -172.189
1509 23.5 14 1.4 30.323 -78.1152 -132.554
1510 23.75 14 1.4 30.5724 -68.4793 -136.165
1511 24 14 1.4 30.8217 -74.4006 -122.999
1512 24.25 14 1.4 31.0711 -71.2758 -107.497
1513 -7 14.25 1.4 1.96621 -41.048 -91.5032
1514 -6.75 14.25 1.4 1.94937 -41.8622 -32.6448
1515 -6.5 14.25 1.4 1.96447 -38.3154 -67.4478
1516 -6.25 14.25 1.4 2.01078 -38.2529 178.29
1517 -6 14.25 1.4 2.08622 -45.5754 -62.0457
1518 -5.75 14.25 1.4 2.18779 -41.0195 11.3895
1519 -5.5 14.25 1.4 2.31203 -51.3259 91.514
1520 -5.25 14.25 1.4 2.45552 -40.1907 -48.3982
1521 -5 14.25 1.4 2.61509 -41.9268 -178.541
1522 -4.75 14.25 1.4 2.78797 -46.9388 123.954
1523 -4.5 14.25 1.4 2.97184 -40.4633 -123.983
1524 -4.25 14.25 1.4 3.1648 -44.425 9.34763
1525 -4 14.25 1.4 3.36527 -46.5522 134.918
1526 -3.75 14.25 1.4 3.57199 -44.9153 -113.517
1527 -3.5 14.25 1.4 3.78394 -51.0523 -48.2837
1528 -3.25 14.25 1.4 4.00029 -52.4253 102.61
1529 -3 14.25 1.4 4.22035 -56.1597 155.124
1530 -2.75 14.25 1.4 4.44359 -57.6188 175.533
1531 -2.5 14.25 1.4 4.66954 -52.141 -156.165
1532 -2.25 14.25 1.4 4.89782 -55.4087 -170.925
1533 -2 14.25 1.4 5.12813 -59.6157 -102.204
1534 -1.75 14.25 1.4 5.36021 -58.6803 32.2178
1535 -1.5 14.25 1.4 5.59383 -69.0318 171.065
1536 -1.25 14.25 1.4 5.82881 -55.7436 158.44
1537 -1 14.25 1.4 6.06499 -53.2905 135.468
1538 -0.75 14.25 1.4 6.30224 -57.3345 67.6339
1539 -0.5 14.25 1.4 6.54043 -50.6756 49.5995
1540 -0.25 14.25 1.4 6.77948 -51.6576 8.42428
1541 -1.77636e-15 14.25 1.4 7.01929 -59.008 59.3549
1542 0.25 14.25 1.4 7.25979 -53.8707 114.836
1543 0.5 14.25 1.4 7.50091 -50.5719 64.7212
1544 0.75 14.25 1.4 7.74259 -53.5378 -3.90046
1545 1 14.25 1.4 7.98479 -56.9697 -142.695
1546 1.25 14.25 1.4 8.22745 -62.4086 72.7473
1547 1.5 14.25 1.4 8.47054 -56.8139 -60.9735
1548 1.75 14.25 1.4 8.71402 -57.0402 21.668
1549 2 14.25 1.4 8.95786 -60.6396 16.0361
1550 2.25 14.25 1.4 9.20202 -69.6213 -121.996
1551 2.5 14.25 1.4 9.4465 -61.4968 146.945
1552 2.75 14.25 1.4 9.69126 -60.8552 141.597
1553 3 14.25 1.4 9.93627 -66.8225 84.6364
1554 3.25 14.25 1.4 10.1815 -58.6228 -5.48445
1555 3.5 14.25 1.4 10.427 -57.7717 -37.7592
1556 3.75 14.25 1.4 10.6727 -55.4051 -39.3355
1557 4 14.25 1.4 10.9186 -61.2759 -75.3939
1558 4.25 14.25 1.4 11.1647 -60.014 -81.8877
1559 4.5 14.25 1.4 11.4109 -54.3064 1.236
1560 4.75 14.25 1.4 11.6573 -63.6212 87.6533
1561 5 14.25 1.4 11.9039 -54.0478 -93.4362
1562 5.25 14.25 1.4 12.1506 -65.7631 -28.7714
1563 5.5 14.25 1.4 12.3974 -52.445 156.646
1564 5.75 14.25 1.4 12.6443 -62.2525 -127.085
1565 6 14.25 1.4 12.8914 -55.8309 -18.9304
1566 6.25 14.25 1.4 13.1386 -61.6733 145.837
1567 6.5 14.25 1.4 13.3859 -55.6049 -141.659
1568 6.75 14.25 1.4 13.6333 -58.3546 -39.561
1569 7 14.25 1.4 13.8807 -62.1411 41.965
1570 7.25 14.25 1.4 14.1283 -61.5572 168.644
1571 7.5 14.25 1.4 14.376 -67.7939 -151.497
1572 7.75 14.25 1.4 14.6237 -72.1378 -123.524
1573 8 14.25 1.4 14.8715 -56.7647 66.0586
1574 8.25 14.25 1.4 15.1194 -68.386 138.261
1575 8.5 14.25 1.4 15.3673 -75.1001 143.157
1576 8.75 14.25 1.4 15.6153 -70.2232 37.8805
1577 9 14.25 1.4 15.8634 -65.9035 -52.7087
1578 9.25 14.25 1.4 16.1115 -59.9043 -49.4456
1579 9.5 14.25 1.4 16.3597 -65.6257 -4.11305
1580 9.75 14.25 1.4 16.608 -72.0596 20.7556
1581 10 14.25 1.4 16.8563 -70.0871 -17.3652
1582 10.25 14.25 1.4 17.1046 -85.3273 -139.984
1583 10.5 14.25 1.4 17.353 -68.3903 -153.717
1584 10.75 14.25 1.4 17.6015 -64.7956 -91.9323
1585 11 14.25 1.4 17.8499 -68.0543 -13.6412
1586 11.25 14.25 1.4 18.0985 -61.3675 23.7225
1587 11.5 14.25 1.4 18.347 -67.7453 87.5428
1588 11.75 14.25 1.4 18.5956 -60.0662 171.606
1589 12 14.25 1.4 18.8443 -56.9135 174.721
1590 12.25 14.25 1.4 19.093 -58.2573 -152.118
1591 12.5 14.25 1.4 19.3417 -60.4253 -96.786
1592 12.75 14.25 1.4 19.5904 -68.1571 -5.23543
1593 13 14.25 1.4 19.8392 -61.0706 -3.19584
1594 13.25 14.25 1.4 20.088 -58.8687 19.0704
1595 13.5 14.25 1.4 20.3368 -62.1316 49.6026
1596 13.75 14.25 1.4 20.5857 -70.0069 93.1942
1597 14 14.25 1.4 20.8346 -70.8395 155.988
1598 14.25 14.25 1.4 21.0835 -82.9845 -170.148
1599 14.5 14.25 1.4 21.3324 -74.5225 -100.451
1600 14.75 14.25 1.4 21.5814 -70.6258 7.59759
1601 15 14.25 1.4 21.8304 -72.3091 90.3644
1602 15.25 14.25 1.4 22.0794 -72.7362 -96.6193
1603 15.5 14.25 1.4 22.3284 -65.9214 17.5366
1604 15.75 14.25 1.4 22.5775 -68.6118 -165.091
1605 16 14.25 1.4 22.8266 -61.742 -104.725
1606 16.25 14.25 1.4 23.0757 -63.5021 -48.4167
1607 16.5 14.25 1.4 23.3248 -69.6501 32.4041
1608 16.75 14.25 1.4 23.5739 -67.2652 -99.7392
1609 17 14.25 1.4 23.8231 -60.6183 -9.3877
1610 17.25 14.25 1.4 24.0722 -67.0647 39.3339
1611 17.5 14.25 1.4 24.3214 -68.5588 125.549
1612 17.75 14.25 1.4 24.5706 -70.9116 -36.0561
1613 18 14.25 1.4 24.8198 -65.4239 45.9202
1614 18.25 14.25 1.4 25.0691 -64.4006 124.881
1615 18.5 14.25 1.4 25.3183 -64.18 -175.348
1616 18.75 14.25 1.4 25.5676 -71.6961 -113.61
1617 19 14.25 1.4 25.8169 -75.0717 -5.71488
1618 19.25 14.25 1.4 26.0662 -71.4381 -40.5696
1619 19.5 14.25 1.4 26.3155 -71.9423 -76.8622
1620 19.75 14.25 1.4 26.5648 -70.9018 0.0279438
1621 20 14.25 1.4 26.8141 -66.8786 45.8171
1622 20.25 14.25 1.4 27.0635 -66.6819 62.3893
1623 20.5 14.25 1.4 27.3128 -77.2284 77.8692
1624 20.75 14.25 1.4 27.5622 -66.7087 66.1515
1625 21 14.25 1.4 27.8116 -69.9914 77.1672
1626 21.25 14.25 1.4 28.061 -73.1737 96.4335
1627 21.5 14.25 1.4 28.3104 -80.8261 -108.731
1628 21.75 14.25 1.4 28.5598 -75.7617 -44.3489
1629 22 14.25 1.4 28.8092 -71.6945 127.388
1630 22.25 14.25 1.4 29.0586 -73.2445 139.388
1631 22.5 14.25 1.4 29.3081 -90.3087 166.34
1632 22.75 14.25 1.4 29.5575 -72.3269 -160.64
1633 23 14.25 1.4 29.807 -71.2791 137.575
1634 23.25 14.25 1.4 30.0565 -72.7691 176.547
1635 23.5 14.25 1.4 30.3059 -86.9678 157.406
1636 23.75 14.25 1.4 30.5554 -84.059 35.2035
1637 24 14.25 1.4 30.8049 -77.2021 45.4198
1638 24.25 14.25 1.4 31.0544 -77.8285 94.3828
