#Rx
# X(m), Y(m), Z(m), Distance(m), Power (dBm) Phase (deg)
1 -7 11.25 1.4 12.8912 -61.0016 68.1522
2 -6.75 11.25 1.4 12.6517 -60.9785 -7.07839
3 -6.5 11.25 1.4 12.4127 -55.8669 13.1537
4 -6.25 11.25 1.4 12.174 -58.1985 -16.0716
5 -6 11.25 1.4 11.9359 -54.7464 -30.3085
6 -5.75 11.25 1.4 11.6982 -56.7879 -61.091
7 -5.5 11.25 1.4 11.461 -54.326 -71.7317
8 -5.25 11.25 1.4 11.2244 -57.0692 -110.167
9 -5 11.25 1.4 10.9884 -57.0291 -124.405
10 -4.75 11.25 1.4 10.7531 -55.9685 -155.141
11 -4.5 11.25 1.4 10.5184 -57.9234 169.784
12 -4.25 11.25 1.4 10.2844 -56.7092 140.363
13 -4 11.25 1.4 10.0512 -58.6103 113.314
14 -3.75 11.25 1.4 9.81886 -57.0817 44.4448
15 -3.5 11.25 1.4 9.58737 -59.7159 24.3817
16 -3.25 11.25 1.4 9.35684 -59.2726 -43.5219
17 -3 11.25 1.4 9.12734 -55.2261 -96.9434
18 -2.75 11.25 1.4 8.89893 -56.2494 -20.2919
19 -2.5 11.25 1.4 8.67173 -57.7036 -128.501
20 -2.25 11.25 1.4 8.4458 -57.7324 151.484
21 -2 11.25 1.4 8.22128 -55.3895 126.093
22 -1.75 11.25 1.4 7.99826 -69.0999 -102.898
23 -1.5 11.25 1.4 7.77688 -65.4659 -118.714
24 -1.25 11.25 1.4 7.5573 -66.4895 145.149
25 -1 11.25 1.4 7.33965 -56.3092 35.2526
26 -0.75 11.25 1.4 7.12413 -54.7375 -26.7299
27 -0.5 11.25 1.4 6.91094 -55.6555 -135.01
28 -0.25 11.25 1.4 6.70029 -54.8025 103.125
29 -1.77636e-15 11.25 1.4 6.49243 -53.7784 -6.91582
30 0.25 11.25 1.4 6.28764 -56.161 -122.94
31 0.5 11.25 1.4 6.08623 -57.737 122.55
32 0.75 11.25 1.4 5.88854 -51.4568 -35.0663
33 1 11.25 1.4 5.69497 -51.2852 156.178
34 1.25 11.25 1.4 5.50595 -56.1797 -25.182
35 1.5 11.25 1.4 5.32196 -58.7197 -169.645
36 1.75 11.25 1.4 5.14355 -60.7145 -9.41657
37 2 11.25 1.4 4.9713 -55.1886 -133.765
38 2.25 11.25 1.4 4.8059 -48.5958 -36.4571
39 2.5 11.25 1.4 4.64805 -49.8972 63.3771
40 2.75 11.25 1.4 4.49858 -50.3217 136.083
41 3 11.25 1.4 4.35832 -50.9134 175.331
42 3.25 11.25 1.4 4.22821 -51.0136 -175.653
43 3.5 11.25 1.4 4.1092 -50.6928 177.313
44 3.75 11.25 1.4 4.00229 -49.1396 150.538
45 4 11.25 1.4 3.90846 -48.935 37.3051
46 4.25 11.25 1.4 3.82869 -53.9318 -92.6255
47 4.5 11.25 1.4 3.76386 -61.0858 80.6468
48 4.75 11.25 1.4 3.71476 -56.6486 -27.4171
49 5 11.25 1.4 3.68201 -54.0572 68.5575
50 5.25 11.25 1.4 3.66606 -51.3427 110.38
51 5.5 11.25 1.4 3.66712 -53.6765 111.304
52 5.75 11.25 1.4 3.68518 -57.9455 17.9745
53 6 11.25 1.4 3.71999 -53.2178 94.0644
54 6.25 11.25 1.4 3.77109 -51.931 -59.0983
55 6.5 11.25 1.4 3.83782 -48.7338 123.487
56 6.75 11.25 1.4 3.9194 -47.3409 -98.7478
57 7 11.25 1.4 4.0149 -46.9225 9.95333
58 7.25 11.25 1.4 4.12337 -49.0428 74.3395
59 7.5 11.25 1.4 4.24382 -51.6442 100.701
60 7.75 11.25 1.4 4.37525 -50.5554 62.3224
61 8 11.25 1.4 4.5167 -49.5324 29.9768
62 8.25 11.25 1.4 4.66726 -48.3905 -8.21719
63 8.5 11.25 1.4 4.82609 -49.8628 -85.3449
64 8.75 11.25 1.4 4.99238 -60.9661 155.034
65 9 11.25 1.4 5.16543 -62.7488 14.3321
66 9.25 11.25 1.4 5.34457 -59.276 168.138
67 9.5 11.25 1.4 5.52922 -51.4602 -24.261
68 9.75 11.25 1.4 5.71883 -49.2944 174.843
69 10 11.25 1.4 5.91293 -49.7752 3.73703
70 10.25 11.25 1.4 6.1111 -52.1574 158.396
71 10.5 11.25 1.4 6.31295 -52.3773 -86.7124
72 10.75 11.25 1.4 6.51814 -52.0151 40.976
73 11 11.25 1.4 6.72636 -52.7009 158.394
74 11.25 11.25 1.4 6.93734 -52.9997 -75.8293
75 11.5 11.25 1.4 7.15084 -55.3638 25.3036
76 11.75 11.25 1.4 7.36663 -58.7325 131.129
77 12 11.25 1.4 7.58453 -61.0245 -87.7897
78 12.25 11.25 1.4 7.80435 -61.977 -84.4556
79 12.5 11.25 1.4 8.02593 -63.1212 -175.557
80 12.75 11.25 1.4 8.24914 -67.6531 18.4271
81 13 11.25 1.4 8.47385 -65.9818 134.02
82 13.25 11.25 1.4 8.69994 -57.8495 74.3048
83 13.5 11.25 1.4 8.9273 -64.0934 111.405
84 13.75 11.25 1.4 9.15584 -62.8029 -158.3
85 14 11.25 1.4 9.38548 -56.1856 -122.155
86 14.25 11.25 1.4 9.61613 -62.7677 -83.7138
87 14.5 11.25 1.4 9.84773 -57.9127 -23.4443
88 14.75 11.25 1.4 10.0802 -59.1112 -2.6882
89 15 11.25 1.4 10.3135 -60.3155 63.4703
90 15.25 11.25 1.4 10.5476 -57.2722 94.9193
91 15.5 11.25 1.4 10.7823 -59.6386 123.183
92 15.75 11.25 1.4 11.0178 -57.0552 143.33
93 16 11.25 1.4 11.2539 -58.29 171.179
94 16.25 11.25 1.4 11.4905 -57.838 -170.268
95 16.5 11.25 1.4 11.7277 -56.9619 -132.759
96 16.75 11.25 1.4 11.9655 -59.2409 -124.24
97 17 11.25 1.4 12.2037 -63.4627 -54.4628
98 17.25 11.25 1.4 12.4424 -60.0618 -50.0305
99 17.5 11.25 1.4 12.6815 -56.6284 -45.673
100 17.75 11.25 1.4 12.9211 -66.9374 -5.3507
101 18 11.25 1.4 13.161 -59.9129 -3.0136
102 18.25 11.25 1.4 13.4013 -61.9539 -35.5841
103 18.5 11.25 1.4 13.6419 -63.0819 -26.0799
104 18.75 11.25 1.4 13.8829 -86.1776 -37.2732
105 19 11.25 1.4 14.1242 -67.4904 -27.7179
106 19.25 11.25 1.4 14.3658 -64.1637 -78.2168
107 19.5 11.25 1.4 14.6076 -70.6123 -42.1542
108 19.75 11.25 1.4 14.8498 -63.1225 178.779
109 20 11.25 1.4 15.0922 -61.4907 -79.7592
110 20.25 11.25 1.4 15.3348 -62.8004 -131.819
111 20.5 11.25 1.4 15.5777 -65.853 136.586
112 20.75 11.25 1.4 15.8208 -63.7488 -70.0075
113 21 11.25 1.4 16.0641 -66.6414 -31.5371
114 21.25 11.25 1.4 16.3076 -67.2943 132.653
115 21.5 11.25 1.4 16.5513 -65.1447 -84.5111
116 21.75 11.25 1.4 16.7952 -67.0417 -38.9032
117 22 11.25 1.4 17.0393 -68.5862 136.041
118 22.25 11.25 1.4 17.2835 -63.2174 -118.973
119 22.5 11.25 1.4 17.5279 -66.0151 -55.9182
120 22.75 11.25 1.4 17.7724 -68.9337 -111.273
121 23 11.25 1.4 18.0171 -61.7574 -151.845
122 23.25 11.25 1.4 18.262 -63.5554 -114.395
123 23.5 11.25 1.4 18.507 -67.2702 -47.9728
124 23.75 11.25 1.4 18.7521 -73.9766 -158.648
125 24 11.25 1.4 18.9973 -63.447 -151.595
126 24.25 11.25 1.4 19.2427 -62.223 -112.109
127 -7 11.5 1.4 12.8224 -60.6687 -135.578
128 -6.75 11.5 1.4 12.5816 -63.9238 127.495
129 -6.5 11.5 1.4 12.3412 -54.2843 -170.502
130 -6.25 11.5 1.4 12.1011 -63.0149 159.95
131 -6 11.5 1.4 11.8615 -56.193 131.942
132 -5.75 11.5 1.4 11.6223 -59.9368 93.2942
133 -5.5 11.5 1.4 11.3836 -58.3211 118.453
134 -5.25 11.5 1.4 11.1453 -60.2263 56.5535
135 -5 11.5 1.4 10.9076 -65.1371 77.4702
136 -4.75 11.5 1.4 10.6705 -66.3889 78.3699
137 -4.5 11.5 1.4 10.4339 -63.6995 140.668
138 -4.25 11.5 1.4 10.198 -63.7925 79.6021
139 -4 11.5 1.4 9.9628 -57.6534 48.26
140 -3.75 11.5 1.4 9.72832 -69.4903 48.5531
141 -3.5 11.5 1.4 9.49463 -56.5936 -22.8229
142 -3.25 11.5 1.4 9.26179 -76.6258 -59.3265
143 -3 11.5 1.4 9.02987 -67.9612 109.682
144 -2.75 11.5 1.4 8.79894 -55.4395 -150.956
145 -2.5 11.5 1.4 8.56908 -60.2966 -89.7098
146 -2.25 11.5 1.4 8.34038 -56.8504 155.828
147 -2 11.5 1.4 8.11293 -55.8878 84.3276
148 -1.75 11.5 1.4 7.88685 -56.686 20.8781
149 -1.5 11.5 1.4 7.66226 -55.6783 -70.4489
150 -1.25 11.5 1.4 7.43929 -58.8552 119.995
151 -1 11.5 1.4 7.21809 -57.5762 20.51
152 -0.75 11.5 1.4 6.99883 -53.8411 -55.1685
153 -0.5 11.5 1.4 6.78169 -56.8238 -130.375
154 -0.25 11.5 1.4 6.5669 -61.7329 129.355
155 -1.77636e-15 11.5 1.4 6.35468 -59.2381 41.0932
156 0.25 11.5 1.4 6.1453 -58.9465 -49.7436
157 0.5 11.5 1.4 5.93906 -59.0363 -106.282
158 0.75 11.5 1.4 5.73631 -53.5221 105.091
159 1 11.5 1.4 5.53742 -52.7004 -44.994
160 1.25 11.5 1.4 5.34283 -51.1056 141.529
161 1.5 11.5 1.4 5.15302 -54.3865 -44.0745
162 1.75 11.5 1.4 4.96854 -62.663 -126.274
163 2 11.5 1.4 4.79 -53.6893 4.86979
164 2.25 11.5 1.4 4.61811 -52.5077 128.919
165 2.5 11.5 1.4 4.45362 -51.8616 -137.025
166 2.75 11.5 1.4 4.29738 -53.4696 5.31577
167 3 11.5 1.4 4.15033 -53.9214 76.4265
168 3.25 11.5 1.4 4.01348 -49.3477 127.93
169 3.5 11.5 1.4 3.88791 -49.2051 119.459
170 3.75 11.5 1.4 3.77473 -50.7432 99.9345
171 4 11.5 1.4 3.6751 -49.5557 38.8929
172 4.25 11.5 1.4 3.59015 -49.1264 -71.1504
173 4.5 11.5 1.4 3.52093 -52.8246 140.857
174 4.75 11.5 1.4 3.46839 -50.9556 -63.0858
175 5 11.5 1.4 3.43329 -51.2442 37.2222
176 5.25 11.5 1.4 3.41618 -48.9336 90.3355
177 5.5 11.5 1.4 3.41732 -50.9357 79.2539
178 5.75 11.5 1.4 3.43669 -54.5965 9.11119
179 6 11.5 1.4 3.47399 -52.9141 165.308
180 6.25 11.5 1.4 3.52865 -59.8096 -61.4106
181 6.5 11.5 1.4 3.59988 -49.324 96.1739
182 6.75 11.5 1.4 3.68673 -45.5043 -126.658
183 7 11.5 1.4 3.7881 -45.7479 -23.9652
184 7.25 11.5 1.4 3.90288 -48.6376 16.3384
185 7.5 11.5 1.4 4.02992 -49.256 23.8265
186 7.75 11.5 1.4 4.1681 -48.2565 21.0097
187 8 11.5 1.4 4.31635 -61.7515 -72.3994
188 8.25 11.5 1.4 4.47366 -49.8751 151.778
189 8.5 11.5 1.4 4.63912 -47.7191 79.7012
190 8.75 11.5 1.4 4.81188 -47.2681 -28.905
191 9 11.5 1.4 4.99119 -51.6898 177.491
192 9.25 11.5 1.4 5.17636 -54.9104 -27.9168
193 9.5 11.5 1.4 5.3668 -51.5724 136.231
194 9.75 11.5 1.4 5.56195 -50.2987 -46.3407
195 10 11.5 1.4 5.76134 -50.5686 121.368
196 10.25 11.5 1.4 5.96455 -56.1214 -78.8641
197 10.5 11.5 1.4 6.17119 -62.4533 26.574
198 10.75 11.5 1.4 6.38094 -58.2157 120.468
199 11 11.5 1.4 6.5935 -60.0141 -142.786
200 11.25 11.5 1.4 6.8086 -56.4018 -107.221
201 11.5 11.5 1.4 7.02601 -57.0831 1.54084
202 11.75 11.5 1.4 7.24552 -54.894 114.578
203 12 11.5 1.4 7.46695 -54.3772 -160.135
204 12.25 11.5 1.4 7.69013 -60.8222 -93.9283
205 12.5 11.5 1.4 7.91491 -70.634 79.2866
206 12.75 11.5 1.4 8.14117 -64.6974 -92.577
207 13 11.5 1.4 8.36878 -57.2184 -5.35585
208 13.25 11.5 1.4 8.59763 -58.392 42.9972
209 13.5 11.5 1.4 8.82763 -57.7183 115.542
210 13.75 11.5 1.4 9.05868 -55.178 157.492
211 14 11.5 1.4 9.29072 -60.6216 -171.08
212 14.25 11.5 1.4 9.52367 -57.8327 -90.9031
213 14.5 11.5 1.4 9.75746 -58.4386 -92.4933
214 14.75 11.5 1.4 9.99204 -64.3747 8.28186
215 15 11.5 1.4 10.2273 -62.372 33.8421
216 15.25 11.5 1.4 10.4633 -74.9642 -104.628
217 15.5 11.5 1.4 10.7 -69.1593 79.9345
218 15.75 11.5 1.4 10.9372 -63.8575 -8.79451
219 16 11.5 1.4 11.175 -63.925 -41.3976
220 16.25 11.5 1.4 11.4133 -64.0072 10.3174
221 16.5 11.5 1.4 11.6521 -57.6941 34.7417
222 16.75 11.5 1.4 11.8913 -56.2444 27.6402
223 17 11.5 1.4 12.131 -62.8654 73.6447
224 17.25 11.5 1.4 12.3711 -65.0278 98.0074
225 17.5 11.5 1.4 12.6116 -55.8786 115.237
226 17.75 11.5 1.4 12.8524 -68.1602 11.1204
227 18 11.5 1.4 13.0936 -61.6044 148.103
228 18.25 11.5 1.4 13.3351 -68.2881 153.405
229 18.5 11.5 1.4 13.5769 -87.7377 168.772
230 18.75 11.5 1.4 13.819 -71.9178 -30.2737
231 19 11.5 1.4 14.0614 -70.2921 -112.307
232 19.25 11.5 1.4 14.3041 -72.8216 -32.08
233 19.5 11.5 1.4 14.5469 -65.3978 94.1773
234 19.75 11.5 1.4 14.7901 -64.3735 -77.4727
235 20 11.5 1.4 15.0334 -70.6908 -176.439
236 20.25 11.5 1.4 15.277 -62.2623 74.6885
237 20.5 11.5 1.4 15.5208 -81.0078 -42.0256
238 20.75 11.5 1.4 15.7648 -75.7536 -16.4219
239 21 11.5 1.4 16.0089 -65.5797 92.8171
240 21.25 11.5 1.4 16.2533 -76.5161 -172.289
241 21.5 11.5 1.4 16.4978 -73.4499 -42.2235
242 21.75 11.5 1.4 16.7424 -64.4398 84.6699
243 22 11.5 1.4 16.9872 -68.0846 129.206
244 22.25 11.5 1.4 17.2322 -67.5817 -23.5838
245 22.5 11.5 1.4 17.4773 -62.5104 19.8655
246 22.75 11.5 1.4 17.7226 -64.9342 95.7891
247 23 11.5 1.4 17.968 -70.0396 136.073
248 23.25 11.5 1.4 18.2135 -68.755 -16.4452
249 23.5 11.5 1.4 18.4591 -63.5561 28.7657
250 23.75 11.5 1.4 18.7048 -63.6294 67.7339
251 24 11.5 1.4 18.9507 -69.7743 33.307
252 24.25 11.5 1.4 19.1967 -77.793 -3.48775
253 -7 11.75 1.4 12.7581 -61.0537 17.7027
254 -6.75 11.75 1.4 12.5161 -62.8644 -22.1049
255 -6.5 11.75 1.4 12.2744 -57.7773 9.00174
256 -6.25 11.75 1.4 12.033 -71.2377 -131.198
257 -6 11.75 1.4 11.792 -64.7575 -22.2006
258 -5.75 11.75 1.4 11.5513 -70.368 112.441
259 -5.5 11.75 1.4 11.3111 -60.5621 -5.71497
260 -5.25 11.75 1.4 11.0713 -65.2249 -6.8421
261 -5 11.75 1.4 10.832 -57.3026 -25.7331
262 -4.75 11.75 1.4 10.5931 -56.7106 -66.8695
263 -4.5 11.75 1.4 10.3548 -55.6138 -68.9051
264 -4.25 11.75 1.4 10.1171 -59.0693 -112.032
265 -4 11.75 1.4 9.87991 -54.9457 -121.375
266 -3.75 11.75 1.4 9.64342 -55.2566 -64.2323
267 -3.5 11.75 1.4 9.40762 -55.5329 -154.911
268 -3.25 11.75 1.4 9.17257 -60.4067 -150.742
269 -3 11.75 1.4 8.93834 -65.8857 161.3
270 -2.75 11.75 1.4 8.70498 -60.321 45.3762
271 -2.5 11.75 1.4 8.47257 -64.7619 -151.381
272 -2.25 11.75 1.4 8.24119 -61.6805 115.714
273 -2 11.75 1.4 8.01093 -57.1252 31.5662
274 -1.75 11.75 1.4 7.78189 -54.7605 -15.8077
275 -1.5 11.75 1.4 7.55417 -58.7001 -125.399
276 -1.25 11.75 1.4 7.32791 -58.1231 175.253
277 -1 11.75 1.4 7.10324 -64.9628 130.555
278 -0.75 11.75 1.4 6.88032 -56.9126 -84.4287
279 -0.5 11.75 1.4 6.65933 -55.8324 -130.07
280 -0.25 11.75 1.4 6.44045 -57.5932 157.173
281 -1.77636e-15 11.75 1.4 6.22392 -58.2938 101.095
282 0.25 11.75 1.4 6.00999 -52.6795 -1.92519
283 0.5 11.75 1.4 5.79894 -51.0507 -136.305
284 0.75 11.75 1.4 5.59111 -65.7845 69.9115
285 1 11.75 1.4 5.38686 -54.7481 71.2392
286 1.25 11.75 1.4 5.18663 -50.8716 -92.8494
287 1.5 11.75 1.4 4.99088 -52.9057 82.4686
288 1.75 11.75 1.4 4.80017 -58.5461 -52.305
289 2 11.75 1.4 4.61513 -50.9711 159.778
290 2.25 11.75 1.4 4.43646 -51.4439 -47.2257
291 2.5 11.75 1.4 4.26497 -50.5372 114.507
292 2.75 11.75 1.4 4.10156 -50.1366 -128.199
293 3 11.75 1.4 3.94722 -49.4086 -56.1794
294 3.25 11.75 1.4 3.80307 -53.7836 21.4877
295 3.5 11.75 1.4 3.6703 -51.4959 73.5035
296 3.75 11.75 1.4 3.55019 -48.1725 50.658
297 4 11.75 1.4 3.44408 -46.3564 -7.28487
298 4.25 11.75 1.4 3.35327 -49.9316 -123.199
299 4.5 11.75 1.4 3.27906 -58.1377 179.837
300 4.75 11.75 1.4 3.22258 -49.987 -27.5335
301 5 11.75 1.4 3.18477 -47.3892 61.1256
302 5.25 11.75 1.4 3.16632 -46.0538 114.443
303 5.5 11.75 1.4 3.16754 -46.6442 106.723
304 5.75 11.75 1.4 3.18844 -46.8423 -138.576
305 6 11.75 1.4 3.22861 -50.6972 132.372
306 6.25 11.75 1.4 3.28735 -49.7489 -62.7931
307 6.5 11.75 1.4 3.3637 -45.7631 106.608
308 6.75 11.75 1.4 3.45648 -45.4245 -130.167
309 7 11.75 1.4 3.56441 -47.4317 -54.2227
310 7.25 11.75 1.4 3.68616 -50.9148 -60.2852
311 7.5 11.75 1.4 3.82042 -50.3185 -81.742
312 7.75 11.75 1.4 3.9659 -54.2371 -121.417
313 8 11.75 1.4 4.12142 -47.8293 167.5
314 8.25 11.75 1.4 4.2859 -50.7143 101.112
315 8.5 11.75 1.4 4.45833 -51.8898 -140.553
316 8.75 11.75 1.4 4.63783 -47.9123 108.522
317 9 11.75 1.4 4.82361 -52.3796 -24.4882
318 9.25 11.75 1.4 5.01498 -55.4621 103.173
319 9.5 11.75 1.4 5.21132 -48.8195 -79.2688
320 9.75 11.75 1.4 5.41208 -49.4139 93.9477
321 10 11.75 1.4 5.61679 -63.4996 -118.442
322 10.25 11.75 1.4 5.82504 -55.2415 -69.0468
323 10.5 11.75 1.4 6.03647 -55.2041 48.5988
324 10.75 11.75 1.4 6.25074 -57.9607 150.981
325 11 11.75 1.4 6.46757 -57.8691 -137.737
326 11.25 11.75 1.4 6.68672 -65.4912 -31.1977
327 11.5 11.75 1.4 6.90797 -68.6877 9.8196
328 11.75 11.75 1.4 7.13112 -55.8002 59.88
329 12 11.75 1.4 7.35599 -52.2346 134.05
330 12.25 11.75 1.4 7.58244 -64.0052 -118.552
331 12.5 11.75 1.4 7.81032 -60.8475 13.955
332 12.75 11.75 1.4 8.03952 -65.4667 -106.255
333 13 11.75 1.4 8.26993 -54.4943 -60.5032
334 13.25 11.75 1.4 8.50144 -56.6678 -4.41202
335 13.5 11.75 1.4 8.73397 -56.7389 74.2531
336 13.75 11.75 1.4 8.96744 -58.803 105.636
337 14 11.75 1.4 9.20178 -63.9141 -173.528
338 14.25 11.75 1.4 9.43693 -62.3132 168.92
339 14.5 11.75 1.4 9.67282 -63.6497 55.3839
340 14.75 11.75 1.4 9.9094 -70.0961 167.381
341 15 11.75 1.4 10.1466 -57.5895 170.211
342 15.25 11.75 1.4 10.3844 -63.0663 -176.135
343 15.5 11.75 1.4 10.6228 -58.034 -115.734
344 15.75 11.75 1.4 10.8617 -59.8948 -118.237
345 16 11.75 1.4 11.1011 -64.6342 -72.8564
346 16.25 11.75 1.4 11.341 -60.6453 -38.4599
347 16.5 11.75 1.4 11.5813 -61.4889 -49.099
348 16.75 11.75 1.4 11.8219 -69.1942 -176.301
349 17 11.75 1.4 12.063 -66.4404 -137.021
350 17.25 11.75 1.4 12.3044 -63.462 -162.071
351 17.5 11.75 1.4 12.5462 -56.184 -114.161
352 17.75 11.75 1.4 12.7883 -61.4689 -146.661
353 18 11.75 1.4 13.0306 -62.813 -73.1705
354 18.25 11.75 1.4 13.2733 -65.1978 -74.5789
355 18.5 11.75 1.4 13.5162 -62.9355 -38.1053
356 18.75 11.75 1.4 13.7594 -79.6124 -16.6386
357 19 11.75 1.4 14.0028 -73.1794 -11.3087
358 19.25 11.75 1.4 14.2464 -63.0288 63.882
359 19.5 11.75 1.4 14.4903 -69.3855 -143.403
360 19.75 11.75 1.4 14.7344 -79.4854 56.8052
361 20 11.75 1.4 14.9786 -63.935 44.6367
362 20.25 11.75 1.4 15.2231 -71.0313 165.719
363 20.5 11.75 1.4 15.4677 -70.4084 -146.718
364 20.75 11.75 1.4 15.7125 -67.0435 66.1252
365 21 11.75 1.4 15.9575 -64.7764 157.85
366 21.25 11.75 1.4 16.2026 -68.9096 -166.908
367 21.5 11.75 1.4 16.4478 -66.2298 41.7097
368 21.75 11.75 1.4 16.6932 -65.34 109.196
369 22 11.75 1.4 16.9388 -71.5723 -130.938
370 22.25 11.75 1.4 17.1844 -64.4618 -45.1718
371 22.5 11.75 1.4 17.4302 -68.3639 8.77052
372 22.75 11.75 1.4 17.6761 -71.6663 107.342
373 23 11.75 1.4 17.9221 -65.8968 -117.82
374 23.25 11.75 1.4 18.1683 -64.3867 -75.9506
375 23.5 11.75 1.4 18.4145 -67.366 -27.3884
376 23.75 11.75 1.4 18.6608 -74.9074 -125.545
377 24 11.75 1.4 18.9072 -63.0927 -154.932
378 24.25 11.75 1.4 19.1538 -62.4883 -130.574
379 -7 12 1.4 12.6984 -69.3531 -150.08
380 -6.75 12 1.4 12.4552 -83.6948 116.315
381 -6.5 12 1.4 12.2123 -60.0702 -128.55
382 -6.25 12 1.4 11.9697 -61.9432 -65.8794
383 -6 12 1.4 11.7274 -56.6138 -156.036
384 -5.75 12 1.4 11.4854 -60.1924 -149.168
385 -5.5 12 1.4 11.2437 -56.4201 161.036
386 -5.25 12 1.4 11.0025 -61.4765 141.914
387 -5 12 1.4 10.7616 -59.445 120.199
388 -4.75 12 1.4 10.5212 -62.2055 73.7169
389 -4.5 12 1.4 10.2812 -62.1256 143.412
390 -4.25 12 1.4 10.0417 -60.4062 130.71
391 -4 12 1.4 9.8027 -55.115 73.7178
392 -3.75 12 1.4 9.5643 -60.1816 144.584
393 -3.5 12 1.4 9.3265 -58.6004 72.0428
394 -3.25 12 1.4 9.08935 -54.5062 100.038
395 -3 12 1.4 8.85292 -55.1563 72.827
396 -2.75 12 1.4 8.61724 -55.4819 7.64093
397 -2.5 12 1.4 8.3824 -59.85 -1.8451
398 -2.25 12 1.4 8.14846 -63.1136 126.493
399 -2 12 1.4 7.91551 -59.2743 -6.43515
400 -1.75 12 1.4 7.68362 -54.2239 -103.744
401 -1.5 12 1.4 7.45291 -58.5887 -157.747
402 -1.25 12 1.4 7.22347 -62.1305 95.175
403 -1 12 1.4 6.99545 -60.5927 145.271
404 -0.75 12 1.4 6.76898 -59.4144 79.9185
405 -0.5 12 1.4 6.54423 -58.6999 29.0192
406 -0.25 12 1.4 6.32137 -56.735 150.64
407 -1.77636e-15 12 1.4 6.10061 -53.5336 73.9267
408 0.25 12 1.4 5.8822 -57.045 -38.3012
409 0.5 12 1.4 5.6664 -58.6803 -43.2531
410 0.75 12 1.4 5.45351 -51.5781 -169.001
411 1 12 1.4 5.24391 -54.5899 41.5966
412 1.25 12 1.4 5.03799 -54.2025 14.8347
413 1.5 12 1.4 4.83623 -49.0414 -167.217
414 1.75 12 1.4 4.63917 -60.884 33.0393
415 2 12 1.4 4.44744 -51.2279 -61.6825
416 2.25 12 1.4 4.26175 -51.8991 55.7027
417 2.5 12 1.4 4.08292 -53.4501 -72.9786
418 2.75 12 1.4 3.91191 -50.4282 37.6826
419 3 12 1.4 3.74978 -52.9217 -166.599
420 3.25 12 1.4 3.59772 -50.5364 -79.8269
421 3.5 12 1.4 3.45708 -48.0678 -49.085
422 3.75 12 1.4 3.32929 -53.8569 -39.3072
423 4 12 1.4 3.21589 -48.4407 -30.1864
424 4.25 12 1.4 3.11845 -48.2978 -137.487
425 4.5 12 1.4 3.0385 -50.8181 142.921
426 4.75 12 1.4 2.97746 -48.307 -38.4111
427 5 12 1.4 2.93651 -46.2202 64.1885
428 5.25 12 1.4 2.91648 -45.2752 124.218
429 5.5 12 1.4 2.91781 -45.4543 103.505
430 5.75 12 1.4 2.94048 -46.9958 -114.088
431 6 12 1.4 2.98399 -49.5307 166.392
432 6.25 12 1.4 3.04745 -52.0142 -72.1239
433 6.5 12 1.4 3.12966 -46.3961 76.1821
434 6.75 12 1.4 3.22917 -44.9394 -174.407
435 7 12 1.4 3.34444 -47.2456 -116.175
436 7.25 12 1.4 3.47391 -47.8646 -119.133
437 7.5 12 1.4 3.61606 -51.6586 -169.417
438 7.75 12 1.4 3.76944 -48.0362 101.347
439 8 12 1.4 3.93274 -51.6968 -18.7541
440 8.25 12 1.4 4.10478 -48.5315 -116.339
441 8.5 12 1.4 4.2845 -53.7843 97.9977
442 8.75 12 1.4 4.47099 -47.3702 -87.4921
443 9 12 1.4 4.66343 -47.1658 112.66
444 9.25 12 1.4 4.8611 -53.822 -121.916
445 9.5 12 1.4 5.06341 -48.9928 18.8028
446 9.75 12 1.4 5.26981 -53.3273 -177.531
447 10 12 1.4 5.47984 -55.9505 -133.654
448 10.25 12 1.4 5.6931 -52.0721 -2.26613
449 10.5 12 1.4 5.90925 -60.4852 133.55
450 10.75 12 1.4 6.12797 -60.2036 121.67
451 11 12 1.4 6.349 -61.8743 -133.365
452 11.25 12 1.4 6.5721 -60.7792 -36.4826
453 11.5 12 1.4 6.79708 -58.877 24.3033
454 11.75 12 1.4 7.02375 -60.4601 12.4391
455 12 12 1.4 7.25196 -53.269 50.9977
456 12.25 12 1.4 7.48156 -57.8715 170.738
457 12.5 12 1.4 7.71242 -65.0489 -101.287
458 12.75 12 1.4 7.94445 -59.4313 145.137
459 13 12 1.4 8.17753 -54.4834 -159.08
460 13.25 12 1.4 8.41159 -56.6841 -31.4392
461 13.5 12 1.4 8.64654 -59.2304 -16.7238
462 13.75 12 1.4 8.88231 -66.5019 -81.6471
463 14 12 1.4 9.11883 -62.9622 -73.9688
464 14.25 12 1.4 9.35606 -55.9974 -13.5127
465 14.5 12 1.4 9.59394 -60 8.29792
466 14.75 12 1.4 9.83242 -56.7418 61.64
467 15 12 1.4 10.0715 -64.0614 67.4313
468 15.25 12 1.4 10.311 -63.2889 -154.797
469 15.5 12 1.4 10.5511 -70.0389 86.0042
470 15.75 12 1.4 10.7916 -64.5196 15.8365
471 16 12 1.4 11.0325 -73.0863 -41.4665
472 16.25 12 1.4 11.2738 -65.9555 34.2553
473 16.5 12 1.4 11.5155 -59.8706 91.6892
474 16.75 12 1.4 11.7575 -63.976 127.803
475 17 12 1.4 11.9999 -69.2946 65.274
476 17.25 12 1.4 12.2425 -64.772 -71.741
477 17.5 12 1.4 12.4855 -82.1492 88.1147
478 17.75 12 1.4 12.7287 -61.3512 -34.5212
479 18 12 1.4 12.9722 -65.9633 38.9897
480 18.25 12 1.4 13.2159 -67.8704 62.1946
481 18.5 12 1.4 13.4599 -61.3913 103.77
482 18.75 12 1.4 13.704 -64.963 102.68
483 19 12 1.4 13.9484 -64.7851 70.3585
484 19.25 12 1.4 14.193 -61.1068 172.719
485 19.5 12 1.4 14.4378 -64.1391 145.329
486 19.75 12 1.4 14.6827 -68.7934 -41.3297
487 20 12 1.4 14.9278 -67.9805 179.47
488 20.25 12 1.4 15.1731 -67.4612 -169.789
489 20.5 12 1.4 15.4185 -70.9703 -21.7556
490 20.75 12 1.4 15.6641 -70.4426 148.228
491 21 12 1.4 15.9098 -65.7655 169.393
492 21.25 12 1.4 16.1556 -69.2838 -24.6951
493 21.5 12 1.4 16.4016 -66.0721 62.2007
494 21.75 12 1.4 16.6477 -68.2582 121.94
495 22 12 1.4 16.8938 -70.7336 -110.078
496 22.25 12 1.4 17.1402 -65.0878 -8.10719
497 22.5 12 1.4 17.3866 -62.1823 42.2394
498 22.75 12 1.4 17.6331 -69.0048 96.6649
499 23 12 1.4 17.8797 -72.3622 -117.742
500 23.25 12 1.4 18.1264 -65.4441 -29.6538
501 23.5 12 1.4 18.3732 -63.0829 -1.33802
502 23.75 12 1.4 18.6201 -66.026 22.3175
503 24 12 1.4 18.867 -66.1796 -45.231
504 24.25 12 1.4 19.1141 -62.8549 -62.8051
505 -7 12.25 1.4 12.6434 -59.8295 92.111
506 -6.75 12.25 1.4 12.3991 -62.6898 65.4348
507 -6.5 12.25 1.4 12.1551 -57.6072 37.2856
508 -6.25 12.25 1.4 11.9113 -64.1088 1.50858
509 -6 12.25 1.4 11.6677 -55.8597 -9.36383
510 -5.75 12.25 1.4 11.4245 -68.088 -44.0321
511 -5.5 12.25 1.4 11.1815 -62.4432 -65.3417
512 -5.25 12.25 1.4 10.9389 -67.7471 24.6425
513 -5 12.25 1.4 10.6966 -59.6167 31.5781
514 -4.75 12.25 1.4 10.4547 -65.2649 -95.3846
515 -4.5 12.25 1.4 10.2131 -69.8824 -78.6603
516 -4.25 12.25 1.4 9.97199 -59.4537 36.6792
517 -4 12.25 1.4 9.7313 -61.7428 -65.2675
518 -3.75 12.25 1.4 9.49111 -55.4296 -41.851
519 -3.5 12.25 1.4 9.25142 -57.6129 -113.594
520 -3.25 12.25 1.4 9.0123 -61.1146 -77.4042
521 -3 12.25 1.4 8.77379 -57.8935 -32.3476
522 -2.75 12.25 1.4 8.53594 -56.7853 -104.097
523 -2.5 12.25 1.4 8.29879 -52.3536 -123.707
524 -2.25 12.25 1.4 8.06243 -66.6503 -133.553
525 -2 12.25 1.4 7.82691 -60.104 -139.365
526 -1.75 12.25 1.4 7.59232 -54.5587 -160.983
527 -1.5 12.25 1.4 7.35874 -58.4712 154.732
528 -1.25 12.25 1.4 7.12628 -74.7067 -60.8192
529 -1 12.25 1.4 6.89505 -62.2314 60.8656
530 -0.75 12.25 1.4 6.66517 -57.0125 22.6008
531 -0.5 12.25 1.4 6.43679 -54.139 -62.5094
532 -0.25 12.25 1.4 6.21007 -62.8684 22.8545
533 -1.77636e-15 12.25 1.4 5.98521 -54.1494 -107.079
534 0.25 12.25 1.4 5.76243 -54.0723 35.007
535 0.5 12.25 1.4 5.54196 -53.4377 -103.614
536 0.75 12.25 1.4 5.32411 -69.9414 -93.8564
537 1 12.25 1.4 5.1092 -51.8488 129.174
538 1.25 12.25 1.4 4.89762 -58.1571 6.45461
539 1.5 12.25 1.4 4.68982 -52.2327 -62.6041
540 1.75 12.25 1.4 4.48634 -61.8166 125.254
541 2 12.25 1.4 4.28777 -50.916 39.2572
542 2.25 12.25 1.4 4.09485 -53.3247 -111
543 2.5 12.25 1.4 3.9084 -49.8099 83.0246
544 2.75 12.25 1.4 3.72939 -52.1408 -95.9186
545 3 12.25 1.4 3.55895 -50.4762 20.0411
546 3.25 12.25 1.4 3.39837 -48.2194 124.806
547 3.5 12.25 1.4 3.2491 -53.1628 -119.101
548 3.75 12.25 1.4 3.11279 -46.4464 -103.277
549 4 12.25 1.4 2.99119 -51.5335 -98.8197
550 4.25 12.25 1.4 2.88618 -45.3367 -170.299
551 4.5 12.25 1.4 2.79961 -54.7467 113.821
552 4.75 12.25 1.4 2.73324 -47.7553 -28.4721
553 5 12.25 1.4 2.68856 -45.0281 85.29
554 5.25 12.25 1.4 2.66667 -43.843 149.302
555 5.5 12.25 1.4 2.66813 -46.4964 129.79
556 5.75 12.25 1.4 2.6929 -47.3385 -121.473
557 6 12.25 1.4 2.74034 -47.7543 145.324
558 6.25 12.25 1.4 2.80932 -46.4348 -65.1028
559 6.5 12.25 1.4 2.89828 -45.0107 69.4177
560 6.75 12.25 1.4 3.00546 -46.8786 158.631
561 7 12.25 1.4 3.12899 -52.2339 170.616
562 7.25 12.25 1.4 3.26701 -48.1537 138.269
563 7.5 12.25 1.4 3.41777 -49.293 97.826
564 7.75 12.25 1.4 3.57965 -50.3202 -8.60998
565 8 12.25 1.4 3.75123 -49.3199 -147.795
566 8.25 12.25 1.4 3.93122 -48.3798 40.5634
567 8.5 12.25 1.4 4.11853 -47.7959 -102.821
568 8.75 12.25 1.4 4.3122 -49.1529 25.385
569 9 12.25 1.4 4.51141 -50.7797 -145.809
570 9.25 12.25 1.4 4.71546 -51.4851 -41.422
571 9.5 12.25 1.4 4.92376 -52.1824 114.508
572 9.75 12.25 1.4 5.13577 -55.4269 175.075
573 10 12.25 1.4 5.35107 -50.2125 -57.5465
574 10.25 12.25 1.4 5.56927 -71.4048 33.921
575 10.5 12.25 1.4 5.79003 -52.3142 62.2194
576 10.75 12.25 1.4 6.01309 -61.1634 -149.632
577 11 12.25 1.4 6.23819 -60.5338 -169.208
578 11.25 12.25 1.4 6.46513 -55.7613 -85.1314
579 11.5 12.25 1.4 6.6937 -58.493 -37.7638
580 11.75 12.25 1.4 6.92376 -63.7923 -20.8439
581 12 12.25 1.4 7.15515 -58.1693 -35.4548
582 12.25 12.25 1.4 7.38776 -58.079 92.4797
583 12.5 12.25 1.4 7.62147 -61.3998 152.85
584 12.75 12.25 1.4 7.85618 -57.4679 90.2292
585 13 12.25 1.4 8.0918 -55.9388 133.257
586 13.25 12.25 1.4 8.32827 -58.878 -132.636
587 13.5 12.25 1.4 8.5655 -64.8446 123.746
588 13.75 12.25 1.4 8.80344 -57.556 155.281
589 14 12.25 1.4 9.04204 -57.274 -98.3739
590 14.25 12.25 1.4 9.28123 -55.3579 -122.402
591 14.5 12.25 1.4 9.52098 -76.1121 -42.5623
592 14.75 12.25 1.4 9.76124 -65.2745 -132.099
593 15 12.25 1.4 10.002 -58.1436 -159.685
594 15.25 12.25 1.4 10.2432 -58.9415 -146.159
595 15.5 12.25 1.4 10.4848 -57.627 -112.7
596 15.75 12.25 1.4 10.7267 -70.9595 -125.433
597 16 12.25 1.4 10.9691 -65.4633 157.359
598 16.25 12.25 1.4 11.2118 -57.7539 159.238
599 16.5 12.25 1.4 11.4547 -57.5488 167.923
600 16.75 12.25 1.4 11.698 -64.9909 -121.679
601 17 12.25 1.4 11.9416 -58.8234 -123.122
602 17.25 12.25 1.4 12.1854 -84.27 111.042
603 17.5 12.25 1.4 12.4295 -81.658 -45.6985
604 17.75 12.25 1.4 12.6738 -65.7264 74.0945
605 18 12.25 1.4 12.9183 -73.7886 -19.4932
606 18.25 12.25 1.4 13.163 -65.724 132.694
607 18.5 12.25 1.4 13.408 -66.8866 -178.664
608 18.75 12.25 1.4 13.6531 -62.4778 -83.5884
609 19 12.25 1.4 13.8983 -63.8759 -148.671
610 19.25 12.25 1.4 14.1438 -92.2017 123.27
611 19.5 12.25 1.4 14.3894 -56.7718 -72.4598
612 19.75 12.25 1.4 14.6351 -61.6894 -68.431
613 20 12.25 1.4 14.881 -64.8575 -104.372
614 20.25 12.25 1.4 15.1271 -60.8367 -65.1702
615 20.5 12.25 1.4 15.3732 -80.6816 -105.84
616 20.75 12.25 1.4 15.6195 -67.4745 -172.457
617 21 12.25 1.4 15.8659 -62.9684 -103.366
618 21.25 12.25 1.4 16.1124 -71.0343 -78.2366
619 21.5 12.25 1.4 16.359 -68.7452 142.133
620 21.75 12.25 1.4 16.6057 -61.457 174.521
621 22 12.25 1.4 16.8525 -66.096 -162.704
622 22.25 12.25 1.4 17.0994 -67.3595 86.4053
623 22.5 12.25 1.4 17.3464 -59.9205 98.5731
624 22.75 12.25 1.4 17.5935 -59.7668 115.031
625 23 12.25 1.4 17.8406 -67.8671 -162.945
626 23.25 12.25 1.4 18.0879 -73.2913 -25.2554
627 23.5 12.25 1.4 18.3352 -65.4376 26.1603
628 23.75 12.25 1.4 18.5826 -65.3217 101.859
629 24 12.25 1.4 18.83 -64.9024 137.036
630 24.25 12.25 1.4 19.0775 -69.8988 175.398
631 -7 12.5 1.4 12.5931 -66.4207 -151.844
632 -6.75 12.5 1.4 12.3478 -59.8819 130.455
633 -6.5 12.5 1.4 12.1027 -65.5175 57.0021
634 -6.25 12.5 1.4 11.8578 -68.2696 45.291
635 -6 12.5 1.4 11.6132 -66.2736 -167.258
636 -5.75 12.5 1.4 11.3688 -61.6711 -81.6122
637 -5.5 12.5 1.4 11.1246 -62.9793 -156.202
638 -5.25 12.5 1.4 10.8807 -80.1196 118.579
639 -5 12.5 1.4 10.6371 -63.3972 -114.569
640 -4.75 12.5 1.4 10.3938 -61.6109 -123.414
641 -4.5 12.5 1.4 10.1508 -60.3628 150.257
642 -4.25 12.5 1.4 9.90812 -61.1176 148.013
643 -4 12.5 1.4 9.66585 -63.1201 9.60325
644 -3.75 12.5 1.4 9.42398 -60.0437 -165.731
645 -3.5 12.5 1.4 9.18255 -60.754 128.87
646 -3.25 12.5 1.4 8.94158 -55.2387 121.611
647 -3 12.5 1.4 8.70113 -63.0613 107.941
648 -2.75 12.5 1.4 8.46123 -71.9184 134.005
649 -2.5 12.5 1.4 8.22194 -53.1723 108.108
650 -2.25 12.5 1.4 7.9833 -60.3088 73.295
651 -2 12.5 1.4 7.74537 -64.465 32.0328
652 -1.75 12.5 1.4 7.50824 -52.6452 66.843
653 -1.5 12.5 1.4 7.27196 -56.2639 25.4575
654 -1.25 12.5 1.4 7.03663 -61.2685 52.583
655 -1 12.5 1.4 6.80235 -60.0154 -10.6053
656 -0.75 12.5 1.4 6.56922 -51.5612 -47.7305
657 -0.5 12.5 1.4 6.33739 -63.9921 -147.884
658 -0.25 12.5 1.4 6.10699 -55.2369 -85.4775
659 -1.77636e-15 12.5 1.4 5.87818 -59.4372 150.343
660 0.25 12.5 1.4 5.65118 -62.7609 -146.503
661 0.5 12.5 1.4 5.4262 -54.4169 64.4456
662 0.75 12.5 1.4 5.2035 -52.3169 -170.458
663 1 12.5 1.4 4.98339 -59.4602 169.19
664 1.25 12.5 1.4 4.76623 -52.9707 24.2936
665 1.5 12.5 1.4 4.55244 -54.6529 0.0134874
666 1.75 12.5 1.4 4.34252 -56.8172 -149.244
667 2 12.5 1.4 4.13706 -47.9097 132.18
668 2.25 12.5 1.4 3.93676 -53.8094 1.61649
669 2.5 12.5 1.4 3.74244 -48.7338 -175.325
670 2.75 12.5 1.4 3.55508 -52.3121 35.0071
671 3 12.5 1.4 3.37586 -48.6817 -161.385
672 3.25 12.5 1.4 3.20612 -50.3589 7.24172
673 3.5 12.5 1.4 3.04745 -49.0893 83.368
674 3.75 12.5 1.4 2.90168 -48.119 172.446
675 4 12.5 1.4 2.77083 -49.8656 176.815
676 4.25 12.5 1.4 2.65712 -44.6934 166.047
677 4.5 12.5 1.4 2.56283 -49.5447 85.3011
678 4.75 12.5 1.4 2.49015 -47.2553 -54.5513
679 5 12.5 1.4 2.44103 -46.1025 80.7979
680 5.25 12.5 1.4 2.4169 -44.8356 155.246
681 5.5 12.5 1.4 2.41851 -47.1937 133.17
682 5.75 12.5 1.4 2.44581 -46.1425 -86.5096
683 6 12.5 1.4 2.49795 -50.3498 127.743
684 6.25 12.5 1.4 2.57343 -47.5369 -77.2003
685 6.5 12.5 1.4 2.67027 -44.9898 18.6401
686 6.75 12.5 1.4 2.78623 -46.5932 91.9791
687 7 12.5 1.4 2.91905 -48.7151 74.2
688 7.25 12.5 1.4 3.06654 -55.2896 44.9054
689 7.5 12.5 1.4 3.22668 -48.5649 -90.697
690 7.75 12.5 1.4 3.39768 -48.1863 152.295
691 8 12.5 1.4 3.57799 -49.4243 4.43579
692 8.25 12.5 1.4 3.76627 -50.3093 -158.707
693 8.5 12.5 1.4 3.96138 -46.6912 38.4762
694 8.75 12.5 1.4 4.16237 -54.5845 149.124
695 9 12.5 1.4 4.36842 -56.3392 -20.6398
696 9.25 12.5 1.4 4.57885 -51.2459 15.2889
697 9.5 12.5 1.4 4.79309 -58.1711 157.893
698 9.75 12.5 1.4 5.01063 -51.9395 -151.447
699 10 12.5 1.4 5.23108 -60.7413 -23.8089
700 10.25 12.5 1.4 5.45408 -52.0165 -2.70925
701 10.5 12.5 1.4 5.67933 -67.4943 -104.425
702 10.75 12.5 1.4 5.90657 -53.9059 94.6677
703 11 12.5 1.4 6.13558 -60.3608 -143.227
704 11.25 12.5 1.4 6.36617 -55.4491 -172.213
705 11.5 12.5 1.4 6.59817 -54.3307 -107.615
706 11.75 12.5 1.4 6.83145 -59.7093 -127.2
707 12 12.5 1.4 7.06587 -62.7153 -130.01
708 12.25 12.5 1.4 7.30132 -58.648 -35.6232
709 12.5 12.5 1.4 7.53771 -63.9785 33.1866
710 12.75 12.5 1.4 7.77495 -54.8558 -24.73
711 13 12.5 1.4 8.01296 -62.596 6.92603
712 13.25 12.5 1.4 8.25169 -67.0882 105.535
713 13.5 12.5 1.4 8.49106 -56.2549 15.4512
714 13.75 12.5 1.4 8.73103 -56.2035 32.4593
715 14 12.5 1.4 8.97155 -59.1098 150.71
716 14.25 12.5 1.4 9.21257 -56.4471 -3.70454
717 14.5 12.5 1.4 9.45406 -57.5056 -10.6601
718 14.75 12.5 1.4 9.69598 -61.2148 58.9158
719 15 12.5 1.4 9.9383 -73.4773 142.442
720 15.25 12.5 1.4 10.181 -65.8735 -90.5904
721 15.5 12.5 1.4 10.424 -58.3248 -12.0044
722 15.75 12.5 1.4 10.6674 -61.5484 4.71097
723 16 12.5 1.4 10.911 -60.7503 71.7045
724 16.25 12.5 1.4 11.155 -60.967 79.9958
725 16.5 12.5 1.4 11.3992 -67.6872 -83.5267
726 16.75 12.5 1.4 11.6436 -68.6906 -147.52
727 17 12.5 1.4 11.8883 -58.3207 29.3607
728 17.25 12.5 1.4 12.1332 -64.7629 24.2233
729 17.5 12.5 1.4 12.3783 -58.2461 49.3351
730 17.75 12.5 1.4 12.6236 -65.6182 114.25
731 18 12.5 1.4 12.8691 -61.6462 101.95
732 18.25 12.5 1.4 13.1147 -65.9789 79.779
733 18.5 12.5 1.4 13.3605 -67.9983 -66.5789
734 18.75 12.5 1.4 13.6065 -67.9158 60.9915
735 19 12.5 1.4 13.8526 -60.6483 26.8796
736 19.25 12.5 1.4 14.0988 -62.4151 -10.3577
737 19.5 12.5 1.4 14.3452 -59.5159 33.8257
738 19.75 12.5 1.4 14.5917 -61.0491 39.5956
739 20 12.5 1.4 14.8383 -63.1656 25.851
740 20.25 12.5 1.4 15.085 -61.749 50.7206
741 20.5 12.5 1.4 15.3319 -66.4192 50.1831
742 20.75 12.5 1.4 15.5788 -64.0788 -75.2546
743 21 12.5 1.4 15.8258 -61.9312 -81.7925
744 21.25 12.5 1.4 16.0729 -72.6692 -2.22679
745 21.5 12.5 1.4 16.3201 -70.3453 115.762
746 21.75 12.5 1.4 16.5674 -71.1816 -179.912
747 22 12.5 1.4 16.8148 -65.4274 -77.5826
748 22.25 12.5 1.4 17.0623 -73.8057 -67.5243
749 22.5 12.5 1.4 17.3098 -70.1731 42.8306
750 22.75 12.5 1.4 17.5574 -72.1867 171.148
751 23 12.5 1.4 17.805 -69.1127 -102.534
752 23.25 12.5 1.4 18.0527 -63.6323 -48.3622
753 23.5 12.5 1.4 18.3005 -64.185 -21.8345
754 23.75 12.5 1.4 18.5484 -70.4912 33.8852
755 24 12.5 1.4 18.7963 -68.6822 151.278
756 24.25 12.5 1.4 19.0442 -65.8068 -152.449
757 -7 12.75 1.4 12.5475 -67.1899 -131.384
758 -6.75 12.75 1.4 12.3014 -63.7589 -88.3938
759 -6.5 12.75 1.4 12.0553 -68.9698 -175.026
760 -6.25 12.75 1.4 11.8095 -79.2791 -154.398
761 -6 12.75 1.4 11.5638 -60.4402 -5.42398
762 -5.75 12.75 1.4 11.3183 -60.0053 176.433
763 -5.5 12.75 1.4 11.073 -69.0327 -151.567
764 -5.25 12.75 1.4 10.828 -67.3056 57.9542
765 -5 12.75 1.4 10.5831 -59.7868 -2.74483
766 -4.75 12.75 1.4 10.3385 -64.725 -151.103
767 -4.5 12.75 1.4 10.0942 -64.7035 161.114
768 -4.25 12.75 1.4 9.85018 -57.0861 20.3068
769 -4 12.75 1.4 9.60645 -62.8565 -16.3257
770 -3.75 12.75 1.4 9.36305 -62.9564 -44.5403
771 -3.5 12.75 1.4 9.12 -60.6348 156.922
772 -3.25 12.75 1.4 8.87734 -60.5861 13.8807
773 -3 12.75 1.4 8.6351 -61.5014 -51.9167
774 -2.75 12.75 1.4 8.39332 -60.963 -105.27
775 -2.5 12.75 1.4 8.15203 -56.2703 -48.7567
776 -2.25 12.75 1.4 7.91128 -59.1546 -28.2683
777 -2 12.75 1.4 7.67112 -61.8693 -114.845
778 -1.75 12.75 1.4 7.43161 -53.7894 -74.8506
779 -1.5 12.75 1.4 7.19282 -57.7501 -106.746
780 -1.25 12.75 1.4 6.95481 -59.3556 -93.0656
781 -1 12.75 1.4 6.71768 -55.8596 -93.5524
782 -0.75 12.75 1.4 6.48151 -51.568 -172.39
783 -0.5 12.75 1.4 6.24642 -57.81 -127.906
784 -0.25 12.75 1.4 6.01253 -52.9119 162.962
785 -1.77636e-15 12.75 1.4 5.78 -65.7268 -144.969
786 0.25 12.75 1.4 5.54897 -57.4893 89.5958
787 0.5 12.75 1.4 5.31967 -63.9656 147.568
788 0.75 12.75 1.4 5.09232 -51.5029 -33.2626
789 1 12.75 1.4 4.86718 -53.3839 -27.7222
790 1.25 12.75 1.4 4.64459 -52.626 77.6833
791 1.5 12.75 1.4 4.42493 -70.7484 -40.9185
792 1.75 12.75 1.4 4.20866 -51.6266 -103.667
793 2 12.75 1.4 3.99632 -51.5542 175.769
794 2.25 12.75 1.4 3.78858 -56.444 65.5997
795 2.5 12.75 1.4 3.58624 -57.327 -62.5373
796 2.75 12.75 1.4 3.39027 -51.3716 153.548
797 3 12.75 1.4 3.20183 -53.3856 12.1585
798 3.25 12.75 1.4 3.02233 -46.9202 157.791
799 3.5 12.75 1.4 2.85346 -46.9622 -46.8836
800 3.75 12.75 1.4 2.69723 -49.691 64.5517
801 4 12.75 1.4 2.55594 -43.9245 88.4231
802 4.25 12.75 1.4 2.4322 -44.9138 115.669
803 4.5 12.75 1.4 2.32881 -49.798 62.8549
804 4.75 12.75 1.4 2.24859 -44.5032 -58.0459
805 5 12.75 1.4 2.19407 -42.7722 80.1919
806 5.25 12.75 1.4 2.16719 -43.9647 162.133
807 5.5 12.75 1.4 2.16898 -47.274 132.734
808 5.75 12.75 1.4 2.19938 -45.9624 -74.2212
809 6 12.75 1.4 2.25722 -48.4744 122.558
810 6.25 12.75 1.4 2.34048 -44.2556 -99.8219
811 6.5 12.75 1.4 2.44655 -42.1018 -5.01344
812 6.75 12.75 1.4 2.57262 -48.2713 15.9619
813 7 12.75 1.4 2.71591 -47.1548 -29.825
814 7.25 12.75 1.4 2.87384 -46.1262 -114.472
815 7.5 12.75 1.4 3.04413 -47.5736 143.791
816 7.75 12.75 1.4 3.22483 -46.9001 -1.65316
817 8 12.75 1.4 3.41428 -46.6876 -177.067
818 8.25 12.75 1.4 3.6111 -49.4607 5.53179
819 8.5 12.75 1.4 3.81416 -46.9493 113.379
820 8.75 12.75 1.4 4.02251 -53.4352 -114.583
821 9 12.75 1.4 4.23538 -58.8137 26.7835
822 9.25 12.75 1.4 4.4521 -51.3051 75.5463
823 9.5 12.75 1.4 4.67215 -54.8804 77.679
824 9.75 12.75 1.4 4.89507 -55.1114 -121.404
825 10 12.75 1.4 5.1205 -52.2446 -101.343
826 10.25 12.75 1.4 5.34811 -71.2517 22.1705
827 10.5 12.75 1.4 5.57764 -57.839 11.9259
828 10.75 12.75 1.4 5.80886 -59.3123 -26.9822
829 11 12.75 1.4 6.04158 -54.9562 103.954
830 11.25 12.75 1.4 6.27562 -64.3207 43.5259
831 11.5 12.75 1.4 6.51085 -53.7488 133.4
832 11.75 12.75 1.4 6.74715 -63.5146 155.26
833 12 12.75 1.4 6.98439 -57.412 146.92
834 12.25 12.75 1.4 7.2225 -57.7153 156.569
835 12.5 12.75 1.4 7.46139 -62.8576 -163.376
836 12.75 12.75 1.4 7.70098 -54.3429 -169.358
837 13 12.75 1.4 7.94121 -82.7445 -105.705
838 13.25 12.75 1.4 8.18203 -57.4293 74.4357
839 13.5 12.75 1.4 8.42339 -55.4536 -158.56
840 13.75 12.75 1.4 8.66523 -68.1037 139.198
841 14 12.75 1.4 8.90752 -60.7921 119.196
842 14.25 12.75 1.4 9.15023 -57.5645 -154.562
843 14.5 12.75 1.4 9.39332 -64.7772 56.8563
844 14.75 12.75 1.4 9.63677 -62.2512 86.8848
845 15 12.75 1.4 9.88054 -63.0007 -169.432
846 15.25 12.75 1.4 10.1246 -64.4736 -119.103
847 15.5 12.75 1.4 10.369 -70.1841 -85.056
848 15.75 12.75 1.4 10.6136 -63.6494 25.5563
849 16 12.75 1.4 10.8585 -70.3018 83.7911
850 16.25 12.75 1.4 11.1036 -56.3383 -144.613
851 16.5 12.75 1.4 11.3489 -59.1238 -163.783
852 16.75 12.75 1.4 11.5944 -61.1269 -59.7192
853 17 12.75 1.4 11.8401 -63.3398 -137.819
854 17.25 12.75 1.4 12.0859 -64.6955 141.157
855 17.5 12.75 1.4 12.332 -58.2586 -160.501
856 17.75 12.75 1.4 12.5782 -60.199 -160.337
857 18 12.75 1.4 12.8245 -57.8714 -145.671
858 18.25 12.75 1.4 13.071 -57.4236 -150.126
859 18.5 12.75 1.4 13.3176 -67.2007 98.3799
860 18.75 12.75 1.4 13.5644 -69.0069 49.7816
861 19 12.75 1.4 13.8112 -60.6329 158.59
862 19.25 12.75 1.4 14.0582 -61.6839 98.4983
863 19.5 12.75 1.4 14.3052 -57.7299 94.7016
864 19.75 12.75 1.4 14.5524 -64.7614 -168.304
865 20 12.75 1.4 14.7997 -71.2545 132.623
866 20.25 12.75 1.4 15.047 -74.8463 82.0581
867 20.5 12.75 1.4 15.2945 -61.9984 -178.71
868 20.75 12.75 1.4 15.542 -65.468 -121.822
869 21 12.75 1.4 15.7896 -67.123 -50.1541
870 21.25 12.75 1.4 16.0373 -67.5205 31.0913
871 21.5 12.75 1.4 16.285 -68.3223 94.9777
872 21.75 12.75 1.4 16.5329 -85.7496 21.7681
873 22 12.75 1.4 16.7807 -79.7554 -67.8334
874 22.25 12.75 1.4 17.0287 -67.4307 14.978
875 22.5 12.75 1.4 17.2767 -64.3462 71.0981
876 22.75 12.75 1.4 17.5247 -69.3963 91.9088
877 23 12.75 1.4 17.7728 -71.4003 88.3399
878 23.25 12.75 1.4 18.021 -69.7581 -8.44923
879 23.5 12.75 1.4 18.2692 -61.8748 -3.04761
880 23.75 12.75 1.4 18.5175 -62.7599 20.491
881 24 12.75 1.4 18.7658 -73.1772 83.0336
882 24.25 12.75 1.4 19.0142 -71.97 -151.374
883 -7 13 1.4 12.5068 -57.9464 -18.3252
884 -6.75 13 1.4 12.2598 -61.1345 72.4118
885 -6.5 13 1.4 12.013 -67.8406 53.9776
886 -6.25 13 1.4 11.7662 -58.5436 18.9732
887 -6 13 1.4 11.5196 -70.3791 98.4654
888 -5.75 13 1.4 11.2732 -65.8405 99.377
889 -5.5 13 1.4 11.0269 -57.3315 95.3088
890 -5.25 13 1.4 10.7808 -59.7904 26.2307
891 -5 13 1.4 10.5348 -67.9032 -62.6841
892 -4.75 13 1.4 10.2891 -68.3025 -109.333
893 -4.5 13 1.4 10.0436 -62.2939 92.8451
894 -4.25 13 1.4 9.79828 -63.0771 49.894
895 -4 13 1.4 9.55323 -56.7937 -51.0797
896 -3.75 13 1.4 9.30843 -54.5745 -156.984
897 -3.5 13 1.4 9.06392 -70.6992 -101.988
898 -3.25 13 1.4 8.81972 -68.8627 170.178
899 -3 13 1.4 8.57585 -62.7474 -152.92
900 -2.75 13 1.4 8.33235 -60.8911 114.657
901 -2.5 13 1.4 8.08924 -67.3911 93.5994
902 -2.25 13 1.4 7.84657 -60.9144 -157.61
903 -2 13 1.4 7.60437 -60.894 88.1333
904 -1.75 13 1.4 7.36269 -55.0164 106.614
905 -1.5 13 1.4 7.12158 -62.3632 147.205
906 -1.25 13 1.4 6.88111 -56.8767 59.8046
907 -1 13 1.4 6.64135 -55.4219 127.551
908 -0.75 13 1.4 6.40237 -52.3913 50.6279
909 -0.5 13 1.4 6.16426 -52.9645 114.898
910 -0.25 13 1.4 5.92713 -52.8828 32.4071
911 -1.77636e-15 13 1.4 5.6911 -58.7774 44.0819
912 0.25 13 1.4 5.45632 -61.2891 -33.6452
913 0.5 13 1.4 5.22295 -52.267 -14.347
914 0.75 13 1.4 4.99119 -57.3771 3.06228
915 1 13 1.4 4.76128 -56.0445 -126.568
916 1.25 13 1.4 4.53349 -53.5141 -151.755
917 1.5 13 1.4 4.30817 -54.2185 177.49
918 1.75 13 1.4 4.08572 -49.6848 -86.002
919 2 13 1.4 3.86663 -52.8322 -145.045
920 2.25 13 1.4 3.65153 -57.1615 78.8458
921 2.5 13 1.4 3.44114 -53.7125 19.3818
922 2.75 13 1.4 3.23639 -50.8763 -90.9274
923 3 13 1.4 3.03842 -48.3214 126.546
924 3.25 13 1.4 2.84864 -51.6284 -32.8081
925 3.5 13 1.4 2.66881 -50.3259 136.921
926 3.75 13 1.4 2.50106 -46.0775 -107.387
927 4 13 1.4 2.348 -44.7335 25.435
928 4.25 13 1.4 2.21266 -46.2377 56.5521
929 4.5 13 1.4 2.09849 -49.3219 -8.42046
930 4.75 13 1.4 2.00909 -44.1188 -63.3328
931 5 13 1.4 1.94788 -42.2949 89.3268
932 5.25 13 1.4 1.91755 -42.5013 177.227
933 5.5 13 1.4 1.91958 -46.2501 163.042
934 5.75 13 1.4 1.95386 -43.6431 -66.525
935 6 13 1.4 2.01875 -45.0554 109.118
936 6.25 13 1.4 2.11143 -42.939 -114.166
937 6.5 13 1.4 2.22843 -44.3937 -49.909
938 6.75 13 1.4 2.36615 -46.6698 -81.1478
939 7 13 1.4 2.5212 -47.6125 -131.461
940 7.25 13 1.4 2.69058 -48.243 107.597
941 7.5 13 1.4 2.87176 -46.0038 -51.5992
942 7.75 13 1.4 3.06264 -45.4789 123.315
943 8 13 1.4 3.26153 -47.6027 -60.5803
944 8.25 13 1.4 3.46704 -49.0817 81.4034
945 8.5 13 1.4 3.67806 -51.1424 174.519
946 8.75 13 1.4 3.8937 -49.4409 -93.306
947 9 13 1.4 4.11323 -75.2526 46.5803
948 9.25 13 1.4 4.33607 -53.1446 98.2292
949 9.5 13 1.4 4.56172 -55.6875 109.022
950 9.75 13 1.4 4.78978 -52.0652 145.536
951 10 13 1.4 5.01994 -65.9393 -67.6967
952 10.25 13 1.4 5.25191 -54.8133 -100.971
953 10.5 13 1.4 5.48547 -59.2799 -150.884
954 10.75 13 1.4 5.72041 -62.9637 -9.25975
955 11 13 1.4 5.95659 -51.8028 -45.6204
956 11.25 13 1.4 6.19384 -63.98 14.215
957 11.5 13 1.4 6.43207 -51.3713 -6.74114
958 11.75 13 1.4 6.67115 -60.791 3.95779
959 12 13 1.4 6.91101 -59.5052 -4.85186
960 12.25 13 1.4 7.15156 -63.5895 -57.9875
961 12.5 13 1.4 7.39274 -63.2569 -49.71
962 12.75 13 1.4 7.63449 -59.5652 43.1611
963 13 13 1.4 7.87675 -57.5338 -53.6994
964 13.25 13 1.4 8.11948 -62.3081 12.195
965 13.5 13 1.4 8.36264 -62.7019 96.2266
966 13.75 13 1.4 8.60619 -58.281 -40.218
967 14 13 1.4 8.8501 -66.2178 30.7213
968 14.25 13 1.4 9.09434 -68.7536 92.5843
969 14.5 13 1.4 9.33889 -64.2903 -77.3014
970 14.75 13 1.4 9.58372 -60.017 41.4031
971 15 13 1.4 9.8288 -59.3869 92.7651
972 15.25 13 1.4 10.0741 -72.2555 -137.054
973 15.5 13 1.4 10.3197 -57.1307 -19.8472
974 15.75 13 1.4 10.5655 -60.2357 10.4521
975 16 13 1.4 10.8114 -63.6154 74.2084
976 16.25 13 1.4 11.0575 -64.5978 54.7009
977 16.5 13 1.4 11.3039 -55.0945 -52.8123
978 16.75 13 1.4 11.5503 -59.3791 -25.4104
979 17 13 1.4 11.7969 -54.8201 -1.21875
980 17.25 13 1.4 12.0437 -65.7133 -47.8842
981 17.5 13 1.4 12.2906 -61.0821 -35.1914
982 17.75 13 1.4 12.5376 -59.1994 -63.6609
983 18 13 1.4 12.7847 -67.6164 -121.677
984 18.25 13 1.4 13.0319 -60.6951 -33.4968
985 18.5 13 1.4 13.2793 -63.3927 -7.69313
986 18.75 13 1.4 13.5267 -59.9421 106.443
987 19 13 1.4 13.7742 -70.9296 84.5024
988 19.25 13 1.4 14.0219 -76.9976 143.362
989 19.5 13 1.4 14.2696 -62.6423 -176.034
990 19.75 13 1.4 14.5173 -65.818 -132.587
991 20 13 1.4 14.7652 -60.4533 -79.6037
992 20.25 13 1.4 15.0131 -68.7565 -119.573
993 20.5 13 1.4 15.2611 -62.8044 -117.924
994 20.75 13 1.4 15.5092 -61.1724 -95.7724
995 21 13 1.4 15.7573 -63.1479 -110.294
996 21.25 13 1.4 16.0055 -66.4014 -158.661
997 21.5 13 1.4 16.2537 -59.6015 148.976
998 21.75 13 1.4 16.502 -59.1948 160.717
999 22 13 1.4 16.7503 -62.8504 171.416
1000 22.25 13 1.4 16.9987 -59.2073 133.413
1001 22.5 13 1.4 17.2471 -58.6681 117.303
1002 22.75 13 1.4 17.4956 -57.494 122.683
1003 23 13 1.4 17.7441 -59.4899 130.366
1004 23.25 13 1.4 17.9927 -68.0573 91.5829
1005 23.5 13 1.4 18.2413 -71.0073 -2.90956
1006 23.75 13 1.4 18.4899 -64.0323 27.7517
1007 24 13 1.4 18.7386 -64.6328 44.6119
1008 24.25 13 1.4 18.9873 -69 68.7809
1009 -7 13.25 1.4 12.471 -60.0752 120.319
1010 -6.75 13.25 1.4 12.2233 -60.4262 171.271
1011 -6.5 13.25 1.4 11.9757 -58.5429 97.7157
1012 -6.25 13.25 1.4 11.7281 -66.1944 173.153
1013 -6 13.25 1.4 11.4807 -60.5585 -145.989
1014 -5.75 13.25 1.4 11.2334 -56.1298 -177.252
1015 -5.5 13.25 1.4 10.9863 -59.3302 147.808
1016 -5.25 13.25 1.4 10.7392 -63.7587 173.277
1017 -5 13.25 1.4 10.4923 -56.5471 -108.392
1018 -4.75 13.25 1.4 10.2455 -57.3142 -162.851
1019 -4.5 13.25 1.4 9.99894 -65.857 -176.501
1020 -4.25 13.25 1.4 9.75252 -61.1217 -79.595
1021 -4 13.25 1.4 9.50628 -55.9013 -118.298
1022 -3.75 13.25 1.4 9.26025 -59.242 -103.139
1023 -3.5 13.25 1.4 9.01443 -69.8171 24.2409
1024 -3.25 13.25 1.4 8.76885 -58.24 -70.8056
1025 -3 13.25 1.4 8.52353 -77.4484 45.7856
1026 -2.75 13.25 1.4 8.27849 -68.3322 54.8535
1027 -2.5 13.25 1.4 8.03375 -62.5315 15.5702
1028 -2.25 13.25 1.4 7.78935 -64.2113 57.0558
1029 -2 13.25 1.4 7.54531 -67.1486 -21.5379
1030 -1.75 13.25 1.4 7.30168 -57.6745 -54.8546
1031 -1.5 13.25 1.4 7.05849 -60.715 67.7538
1032 -1.25 13.25 1.4 6.81579 -54.428 -140.024
1033 -1 13.25 1.4 6.57364 -59.3973 -36.02
1034 -0.75 13.25 1.4 6.33211 -55.0338 -128.041
1035 -0.5 13.25 1.4 6.09125 -56.1953 -29.7334
1036 -0.25 13.25 1.4 5.85117 -58.4971 -133.347
1037 -1.77636e-15 13.25 1.4 5.61194 -56.5809 -115.05
1038 0.25 13.25 1.4 5.3737 -61.9636 -126.035
1039 0.5 13.25 1.4 5.13658 -51.9515 171.049
1040 0.75 13.25 1.4 4.90074 -50.3655 -152.059
1041 1 13.25 1.4 4.66637 -54.9222 -174.051
1042 1.25 13.25 1.4 4.43371 -58.8009 162.409
1043 1.5 13.25 1.4 4.20305 -55.3818 80.7973
1044 1.75 13.25 1.4 3.97472 -53.1449 43.9846
1045 2 13.25 1.4 3.74915 -59.3805 -15.6817
1046 2.25 13.25 1.4 3.52689 -55.4272 91.5645
1047 2.5 13.25 1.4 3.30858 -53.9155 61.3925
1048 2.75 13.25 1.4 3.09508 -48.3686 -39.9706
1049 3 13.25 1.4 2.88743 -49.6635 -148.645
1050 3.25 13.25 1.4 2.68702 -48.4889 87.3882
1051 3.5 13.25 1.4 2.49556 -47.5139 -66.1985
1052 3.75 13.25 1.4 2.3153 -46.9632 111.143
1053 4 13.25 1.4 2.14904 -50.5283 -144.149
1054 4.25 13.25 1.4 2.00029 -47.988 -50.3175
1055 4.5 13.25 1.4 1.87322 -44.3138 -58.5
1056 4.75 13.25 1.4 1.77249 -45 -84.8241
1057 5 13.25 1.4 1.70279 -42.0851 96.4567
1058 5.25 13.25 1.4 1.66802 -42.0053 -159.223
1059 5.5 13.25 1.4 1.67035 -46.4818 -175.809
1060 5.75 13.25 1.4 1.70963 -43.227 -63.9562
1061 6 13.25 1.4 1.78343 -43.3542 100.537
1062 6.25 13.25 1.4 1.8877 -44.1087 -144.775
1063 6.5 13.25 1.4 2.01772 -47.1069 -129.185
1064 6.75 13.25 1.4 2.16886 -44.997 174.031
1065 7 13.25 1.4 2.33704 -45.1516 49.1356
1066 7.25 13.25 1.4 2.51883 -43.3651 -86.7473
1067 7.5 13.25 1.4 2.71151 -46.4886 112.838
1068 7.75 13.25 1.4 2.91292 -51.2673 -92.5164
1069 8 13.25 1.4 3.12136 -51.5951 1.58381
1070 8.25 13.25 1.4 3.33551 -52.5308 124.433
1071 8.5 13.25 1.4 3.55435 -50.3191 -169.652
1072 8.75 13.25 1.4 3.77706 -50.7154 -91.8971
1073 9 13.25 1.4 4.003 -55.0006 -61.3659
1074 9.25 13.25 1.4 4.23164 -52.0341 -17.7075
1075 9.5 13.25 1.4 4.46257 -61.0376 44.764
1076 9.75 13.25 1.4 4.69546 -53.6577 106.593
1077 10 13.25 1.4 4.93002 -51.1423 124.953
1078 10.25 13.25 1.4 5.16603 -51.1982 99.7487
1079 10.5 13.25 1.4 5.4033 -67.9824 106.004
1080 10.75 13.25 1.4 5.64167 -59.5726 150.296
1081 11 13.25 1.4 5.881 -55.5618 142.302
1082 11.25 13.25 1.4 6.12119 -58.9759 -62.3249
1083 11.5 13.25 1.4 6.36214 -56.7886 -162.317
1084 11.75 13.25 1.4 6.60375 -61.2607 83.3678
1085 12 13.25 1.4 6.84597 -61.1784 177.49
1086 12.25 13.25 1.4 7.08873 -58.6278 140.345
1087 12.5 13.25 1.4 7.33198 -66.8232 -51.2023
1088 12.75 13.25 1.4 7.57566 -61.3536 -90.7238
1089 13 13.25 1.4 7.81975 -59.1636 145.942
1090 13.25 13.25 1.4 8.06419 -65.8274 -138.542
1091 13.5 13.25 1.4 8.30897 -64.5422 -123.129
1092 13.75 13.25 1.4 8.55405 -56.7938 -166.397
1093 14 13.25 1.4 8.79941 -64.1116 -48.5397
1094 14.25 13.25 1.4 9.04502 -64.0295 157.746
1095 14.5 13.25 1.4 9.29086 -56.4837 -165.485
1096 14.75 13.25 1.4 9.53692 -72.6308 -137.242
1097 15 13.25 1.4 9.78318 -60.919 139.589
1098 15.25 13.25 1.4 10.0296 -58.684 -173.875
1099 15.5 13.25 1.4 10.2762 -67.3465 -142.899
1100 15.75 13.25 1.4 10.523 -59.9774 102.514
1101 16 13.25 1.4 10.7699 -57.2122 118.939
1102 16.25 13.25 1.4 11.017 -62.6937 143.818
1103 16.5 13.25 1.4 11.2642 -59.9645 -155.39
1104 16.75 13.25 1.4 11.5115 -64.7049 -25.3577
1105 17 13.25 1.4 11.759 -59.032 122.729
1106 17.25 13.25 1.4 12.0065 -63.5471 107.702
1107 17.5 13.25 1.4 12.2541 -67.8604 162.404
1108 17.75 13.25 1.4 12.5019 -62.726 138.076
1109 18 13.25 1.4 12.7497 -66.0572 38.2153
1110 18.25 13.25 1.4 12.9976 -61.4854 48.7801
1111 18.5 13.25 1.4 13.2456 -55.5052 75.2195
1112 18.75 13.25 1.4 13.4936 -60.5092 84.0859
1113 19 13.25 1.4 13.7417 -61.4667 67.6614
1114 19.25 13.25 1.4 13.9899 -62.6345 73.5361
1115 19.5 13.25 1.4 14.2382 -65.9118 3.49673
1116 19.75 13.25 1.4 14.4865 -59.0334 -33.6972
1117 20 13.25 1.4 14.7349 -55.9381 -22.1367
1118 20.25 13.25 1.4 14.9833 -57.5084 -20.0949
1119 20.5 13.25 1.4 15.2318 -61.5443 -54.8291
1120 20.75 13.25 1.4 15.4803 -58.5804 -65.3772
1121 21 13.25 1.4 15.7289 -57.2979 -69.7504
1122 21.25 13.25 1.4 15.9775 -61.721 -107.973
1123 21.5 13.25 1.4 16.2262 -59.503 -144.861
1124 21.75 13.25 1.4 16.4749 -59.9808 -135.155
1125 22 13.25 1.4 16.7236 -55.0495 -131.372
1126 22.25 13.25 1.4 16.9724 -58.2436 -121.045
1127 22.5 13.25 1.4 17.2212 -63.6604 -140.462
1128 22.75 13.25 1.4 17.47 -61.9828 159.389
1129 23 13.25 1.4 17.7189 -59.2385 151.351
1130 23.25 13.25 1.4 17.9678 -61.2214 153.177
1131 23.5 13.25 1.4 18.2168 -63.181 2.18968
1132 23.75 13.25 1.4 18.4657 -59.8316 4.2724
1133 24 13.25 1.4 18.7147 -59.9233 21.7028
1134 24.25 13.25 1.4 18.9637 -70.7025 3.77539
1135 -7 13.5 1.4 12.4401 -58.3659 -88.7119
1136 -6.75 13.5 1.4 12.1918 -67.8422 145.817
1137 -6.5 13.5 1.4 11.9435 -66.8601 -146.023
1138 -6.25 13.5 1.4 11.6953 -56.8864 -33.1273
1139 -6 13.5 1.4 11.4472 -61.2628 -46.1624
1140 -5.75 13.5 1.4 11.1991 -74.7808 147.777
1141 -5.5 13.5 1.4 10.9512 -67.41 36.8528
1142 -5.25 13.5 1.4 10.7033 -56.1199 -13.003
1143 -5 13.5 1.4 10.4556 -69.9248 20.7245
1144 -4.75 13.5 1.4 10.2079 -74.6282 -178.746
1145 -4.5 13.5 1.4 9.96038 -58.6901 24.4981
1146 -4.25 13.5 1.4 9.71298 -57.0578 -8.75751
1147 -4 13.5 1.4 9.46571 -68.8145 0.15425
1148 -3.75 13.5 1.4 9.2186 -55.7279 59.5969
1149 -3.5 13.5 1.4 8.97164 -59.0631 -7.70598
1150 -3.25 13.5 1.4 8.72485 -57.74 87.9524
1151 -3 13.5 1.4 8.47826 -61.237 36.1368
1152 -2.75 13.5 1.4 8.23187 -56.0931 51.9552
1153 -2.5 13.5 1.4 7.9857 -69.114 121.466
1154 -2.25 13.5 1.4 7.73978 -61.0233 -17.064
1155 -2 13.5 1.4 7.49413 -60.3422 82.1673
1156 -1.75 13.5 1.4 7.24878 -58.1762 105.676
1157 -1.5 13.5 1.4 7.00375 -55.197 -80.1777
1158 -1.25 13.5 1.4 6.75909 -58.6321 112.786
1159 -1 13.5 1.4 6.51484 -53.6839 -175.667
1160 -0.75 13.5 1.4 6.27103 -65.0645 125.042
1161 -0.5 13.5 1.4 6.02774 -54.5516 174.024
1162 -0.25 13.5 1.4 5.78502 -62.1665 43.5058
1163 -1.77636e-15 13.5 1.4 5.54294 -59.2137 82.0834
1164 0.25 13.5 1.4 5.3016 -55.3849 123.251
1165 0.5 13.5 1.4 5.0611 -61.2014 46.126
1166 0.75 13.5 1.4 4.82157 -51.0905 47.3509
1167 1 13.5 1.4 4.58316 -51.0941 21.6828
1168 1.25 13.5 1.4 4.34604 -50.7028 51.7884
1169 1.5 13.5 1.4 4.11046 -49.8376 27.6477
1170 1.75 13.5 1.4 3.87668 -50.4556 7.94474
1171 2 13.5 1.4 3.64506 -52.6096 -19.0081
1172 2.25 13.5 1.4 3.41602 -52.7783 -59.955
1173 2.5 13.5 1.4 3.19014 -54.3544 -172.892
1174 2.75 13.5 1.4 2.96813 -47.4501 -39.0122
1175 3 13.5 1.4 2.75092 -50.3346 -96.7124
1176 3.25 13.5 1.4 2.53975 -47.2226 166.915
1177 3.5 13.5 1.4 2.33626 -47.5513 35.4522
1178 3.75 13.5 1.4 2.14264 -46.0419 -116.3
1179 4 13.5 1.4 1.9618 -43.7195 65.4788
1180 4.25 13.5 1.4 1.79763 -43.4225 179.393
1181 4.5 13.5 1.4 1.65506 -40.6517 -121.116
1182 4.75 13.5 1.4 1.54013 -44.2914 -125.712
1183 5 13.5 1.4 1.45938 -41.207 98.3398
1184 5.25 13.5 1.4 1.41865 -40.7734 -138.616
1185 5.5 13.5 1.4 1.42139 -45.1572 -141.04
1186 5.75 13.5 1.4 1.46736 -40.4997 -54.5994
1187 6 13.5 1.4 1.55271 -41.5056 84.7227
1188 6.25 13.5 1.4 1.67143 -44.4209 161.364
1189 6.5 13.5 1.4 1.817 -45.2475 109.716
1190 6.75 13.5 1.4 1.98349 -46.4872 27.6951
1191 7 13.5 1.4 2.16611 -43.2152 -108.813
1192 7.25 13.5 1.4 2.3611 -48.0959 78.1919
1193 7.5 13.5 1.4 2.56566 -46.5828 -145.966
1194 7.75 13.5 1.4 2.77766 -53.2927 3.84921
1195 8 13.5 1.4 2.99552 -55.3041 33.2519
1196 8.25 13.5 1.4 3.21806 -56.1885 134.732
1197 8.5 13.5 1.4 3.44437 -51.7796 169.64
1198 8.75 13.5 1.4 3.67376 -50.1595 -93.2019
1199 9 13.5 1.4 3.90567 -51.0352 -108.708
1200 9.25 13.5 1.4 4.13969 -52.3859 -70.522
1201 9.5 13.5 1.4 4.37548 -49.3485 -35.6629
1202 9.75 13.5 1.4 4.61277 -52.4393 -69.6163
1203 10 13.5 1.4 4.85133 -54.8646 -45.018
1204 10.25 13.5 1.4 5.09099 -64.8181 -76.142
1205 10.5 13.5 1.4 5.3316 -64.6455 165.331
1206 10.75 13.5 1.4 5.57304 -51.0414 -20.7939
1207 11 13.5 1.4 5.8152 -57.4192 -79.8178
1208 11.25 13.5 1.4 6.05799 -68.3074 -175.98
1209 11.5 13.5 1.4 6.30135 -56.5924 13.1628
1210 11.75 13.5 1.4 6.54522 -62.9016 -146.267
1211 12 13.5 1.4 6.78952 -56.2912 49.4182
1212 12.25 13.5 1.4 7.03423 -55.3358 -21.169
1213 12.5 13.5 1.4 7.2793 -63.945 18.8584
1214 12.75 13.5 1.4 7.52469 -60.3084 -7.53836
1215 13 13.5 1.4 7.77038 -57.6486 -17.5597
1216 13.25 13.5 1.4 8.01633 -58.6805 -49.6042
1217 13.5 13.5 1.4 8.26252 -59.9701 -42.8585
1218 13.75 13.5 1.4 8.50894 -57.6282 -18.8989
1219 14 13.5 1.4 8.75556 -59.9456 -92.8623
1220 14.25 13.5 1.4 9.00237 -59.5796 -33.467
1221 14.5 13.5 1.4 9.24935 -65.8194 -34.7495
1222 14.75 13.5 1.4 9.49648 -63.302 -84.1579
1223 15 13.5 1.4 9.74377 -61.4691 -17.5788
1224 15.25 13.5 1.4 9.99118 -64.1226 170.772
1225 15.5 13.5 1.4 10.2387 -64.8743 -83.743
1226 15.75 13.5 1.4 10.4864 -58.3144 -4.98307
1227 16 13.5 1.4 10.7342 -68.0229 34.6229
1228 16.25 13.5 1.4 10.982 -62.8611 -162.523
1229 16.5 13.5 1.4 11.23 -56.9423 -77.0912
1230 16.75 13.5 1.4 11.478 -64.8116 29.9643
1231 17 13.5 1.4 11.7262 -65.5038 -68.8867
1232 17.25 13.5 1.4 11.9744 -64.3065 -173.24
1233 17.5 13.5 1.4 12.2227 -61.3017 144.53
1234 17.75 13.5 1.4 12.471 -57.8717 -140.127
1235 18 13.5 1.4 12.7194 -66.0641 -113.381
1236 18.25 13.5 1.4 12.9679 -60.8254 81.9623
1237 18.5 13.5 1.4 13.2165 -60.7022 138.953
1238 18.75 13.5 1.4 13.4651 -64.6323 166.156
1239 19 13.5 1.4 13.7137 -62.7524 136.796
1240 19.25 13.5 1.4 13.9624 -66.0965 165.909
1241 19.5 13.5 1.4 14.2111 -69.4037 89.3492
1242 19.75 13.5 1.4 14.4599 -60.2897 42.8684
1243 20 13.5 1.4 14.7087 -56.742 39.7366
1244 20.25 13.5 1.4 14.9576 -59.1021 65.6231
1245 20.5 13.5 1.4 15.2065 -63.8982 56.8973
1246 20.75 13.5 1.4 15.4554 -62.4964 -131.941
1247 21 13.5 1.4 15.7044 -67.6622 -115.38
1248 21.25 13.5 1.4 15.9534 -67.4286 -105.423
1249 21.5 13.5 1.4 16.2024 -67.9918 -163.645
1250 21.75 13.5 1.4 16.4515 -64.1496 -159.73
1251 22 13.5 1.4 16.7006 -67.1405 -104.206
1252 22.25 13.5 1.4 16.9497 -67.8741 -93.0458
1253 22.5 13.5 1.4 17.1988 -63.7677 26.8349
1254 22.75 13.5 1.4 17.448 -60.3811 98.7963
1255 23 13.5 1.4 17.6972 -60.0103 107.935
1256 23.25 13.5 1.4 17.9464 -61.1081 129.253
1257 23.5 13.5 1.4 18.1956 -64.5782 148.034
1258 23.75 13.5 1.4 18.4449 -73.5446 173.802
1259 24 13.5 1.4 18.6941 -71.3239 134.339
1260 24.25 13.5 1.4 18.9434 -102.751 66.8541
1261 -7 13.75 1.4 12.4142 -67.8972 131.264
1262 -6.75 13.75 1.4 12.1653 -68.5791 -46.9012
1263 -6.5 13.75 1.4 11.9165 -58.5562 21.7905
1264 -6.25 13.75 1.4 11.6677 -68.7841 38.0453
1265 -6 13.75 1.4 11.419 -60.2401 -110.5
1266 -5.75 13.75 1.4 11.1703 -62.5462 170.701
1267 -5.5 13.75 1.4 10.9217 -62.7572 114.876
1268 -5.25 13.75 1.4 10.6731 -61.8022 -158.126
1269 -5 13.75 1.4 10.4247 -53.9125 -139.809
1270 -4.75 13.75 1.4 10.1763 -57.0539 132.514
1271 -4.5 13.75 1.4 9.92796 -60.8184 132.31
1272 -4.25 13.75 1.4 9.67973 -57.6624 -166.697
1273 -4 13.75 1.4 9.4316 -56.8852 156.608
1274 -3.75 13.75 1.4 9.18356 -63.9274 -145.616
1275 -3.5 13.75 1.4 8.93564 -60.2807 -155.464
1276 -3.25 13.75 1.4 8.68783 -59.3577 -140.511
1277 -3 13.75 1.4 8.44015 -73.594 -108.784
1278 -2.75 13.75 1.4 8.19261 -60.85 -141.78
1279 -2.5 13.75 1.4 7.94523 -67.0923 147.279
1280 -2.25 13.75 1.4 7.69802 -60.631 -155.506
1281 -2 13.75 1.4 7.45099 -60.5239 -162.476
1282 -1.75 13.75 1.4 7.20417 -57.0066 -94.1073
1283 -1.5 13.75 1.4 6.95757 -54.4744 170.847
1284 -1.25 13.75 1.4 6.71123 -53.3392 -110.938
1285 -1 13.75 1.4 6.46517 -72.9529 -50.8492
1286 -0.75 13.75 1.4 6.21942 -49.551 -130.19
1287 -0.5 13.75 1.4 5.97402 -56.6111 -108.312
1288 -0.25 13.75 1.4 5.72902 -55.2156 -105.12
1289 -1.77636e-15 13.75 1.4 5.48448 -58.0433 -76.8686
1290 0.25 13.75 1.4 5.24045 -51.9529 -53.6924
1291 0.5 13.75 1.4 4.997 -51.7327 -8.50154
1292 0.75 13.75 1.4 4.75424 -54.8794 -39.6905
1293 1 13.75 1.4 4.51227 -70.7355 -129.287
1294 1.25 13.75 1.4 4.27123 -57.8763 -90.703
1295 1.5 13.75 1.4 4.03127 -55.612 -97.3964
1296 1.75 13.75 1.4 3.79262 -58.164 -159.628
1297 2 13.75 1.4 3.55552 -50.2249 -151.292
1298 2.25 13.75 1.4 3.32032 -58.1878 178.485
1299 2.5 13.75 1.4 3.08744 -47.8932 151.828
1300 2.75 13.75 1.4 2.85746 -53.5249 104.163
1301 3 13.75 1.4 2.63113 -50.1133 71.419
1302 3.25 13.75 1.4 2.40949 -48.2777 -171.328
1303 3.5 13.75 1.4 2.19395 -46.6122 96.3029
1304 3.75 13.75 1.4 1.9865 -49.3814 -9.42753
1305 4 13.75 1.4 1.78996 -46.0677 -156.01
1306 4.25 13.75 1.4 1.60834 -45.0596 39.6012
1307 4.5 13.75 1.4 1.44725 -42.0896 167.708
1308 4.75 13.75 1.4 1.31427 -41.9322 179.073
1309 5 13.75 1.4 1.21864 -39.4508 85.8604
1310 5.25 13.75 1.4 1.16956 -40.237 -120.283
1311 5.5 13.75 1.4 1.17288 -47.9796 18.7055
1312 5.75 13.75 1.4 1.22818 -37.9833 -53.8967
1313 6 13.75 1.4 1.32898 -39.3751 54.0606
1314 6.25 13.75 1.4 1.46594 -43.7541 63.8154
1315 6.5 13.75 1.4 1.62996 -41.8539 -9.41872
1316 6.75 13.75 1.4 1.81371 -41.5892 -148.538
1317 7 13.75 1.4 2.01179 -43.0425 48.7121
1318 7.25 13.75 1.4 2.22038 -47.0865 176.2
1319 7.5 13.75 1.4 2.43678 -54.8961 -105.655
1320 7.75 13.75 1.4 2.65907 -48.6566 25.4553
1321 8 13.75 1.4 2.8859 -50.3929 4.63907
1322 8.25 13.75 1.4 3.11628 -52.0921 55.6337
1323 8.5 13.75 1.4 3.34948 -49.4148 86.1344
1324 8.75 13.75 1.4 3.58494 -54.4507 130.925
1325 9 13.75 1.4 3.82224 -50.7935 115.58
1326 9.25 13.75 1.4 4.06108 -56.4022 126.938
1327 9.5 13.75 1.4 4.30118 -60.2861 -152.411
1328 9.75 13.75 1.4 4.54234 -56.082 120.826
1329 10 13.75 1.4 4.78442 -66.7338 32.4624
1330 10.25 13.75 1.4 5.02727 -58.9732 -117.31
1331 10.5 13.75 1.4 5.27079 -55.8049 -151.942
1332 10.75 13.75 1.4 5.51489 -51.8321 148.309
1333 11 13.75 1.4 5.7595 -58.2849 164.413
1334 11.25 13.75 1.4 6.00455 -61.6366 -150.201
1335 11.5 13.75 1.4 6.24999 -52.727 156.068
1336 11.75 13.75 1.4 6.49578 -60.3513 90.7526
1337 12 13.75 1.4 6.74188 -57.9726 -140.282
1338 12.25 13.75 1.4 6.98825 -53.4633 139.096
1339 12.5 13.75 1.4 7.23488 -65.3606 138.527
1340 12.75 13.75 1.4 7.48173 -57.7802 132.609
1341 13 13.75 1.4 7.72878 -57.8593 -142.583
1342 13.25 13.75 1.4 7.97601 -58.9189 154.064
1343 13.5 13.75 1.4 8.22342 -59.901 -172.051
1344 13.75 13.75 1.4 8.47097 -61.3094 171.981
1345 14 13.75 1.4 8.71867 -55.4308 135.147
1346 14.25 13.75 1.4 8.96649 -62.0119 165.509
1347 14.5 13.75 1.4 9.21443 -56.0654 90.7336
1348 14.75 13.75 1.4 9.46248 -56.1081 128.361
1349 15 13.75 1.4 9.71063 -61.8359 52.0381
1350 15.25 13.75 1.4 9.95887 -52.9453 64.7756
1351 15.5 13.75 1.4 10.2072 -68.1609 97.165
1352 15.75 13.75 1.4 10.4556 -57.2579 -14.5239
1353 16 13.75 1.4 10.7041 -54.8153 48.9837
1354 16.25 13.75 1.4 10.9526 -59.6389 -31.5041
1355 16.5 13.75 1.4 11.2012 -55.6471 -38.5064
1356 16.75 13.75 1.4 11.4499 -54.4348 -46.4871
1357 17 13.75 1.4 11.6987 -64.8638 -69.5958
1358 17.25 13.75 1.4 11.9474 -61.8396 -35.3786
1359 17.5 13.75 1.4 12.1963 -54.1125 -122.372
1360 17.75 13.75 1.4 12.4452 -57.2363 -111.892
1361 18 13.75 1.4 12.6941 -68.6704 61.3819
1362 18.25 13.75 1.4 12.943 -57.7026 131.602
1363 18.5 13.75 1.4 13.192 -57.194 140.007
1364 18.75 13.75 1.4 13.4411 -59.84 118.511
1365 19 13.75 1.4 13.6902 -60.9562 98.0796
1366 19.25 13.75 1.4 13.9393 -64.2358 84.4167
1367 19.5 13.75 1.4 14.1884 -65.7632 42.3989
1368 19.75 13.75 1.4 14.4376 -59.2853 29.7135
1369 20 13.75 1.4 14.6868 -59.7133 53.4735
1370 20.25 13.75 1.4 14.936 -61.6759 63.6618
1371 20.5 13.75 1.4 15.1853 -75.8059 -118.144
1372 20.75 13.75 1.4 15.4345 -67.5971 -52.5291
1373 21 13.75 1.4 15.6838 -59.5015 -53.4915
1374 21.25 13.75 1.4 15.9332 -61.0542 -41.4021
1375 21.5 13.75 1.4 16.1825 -67.6684 -31.0545
1376 21.75 13.75 1.4 16.4319 -77.15 -146.878
1377 22 13.75 1.4 16.6812 -67.0324 -158.449
1378 22.25 13.75 1.4 16.9306 -67.8814 -147.027
1379 22.5 13.75 1.4 17.1801 -66.4838 176.38
1380 22.75 13.75 1.4 17.4295 -62.5876 149.689
1381 23 13.75 1.4 17.6789 -60.3943 152.8
1382 23.25 13.75 1.4 17.9284 -60.4795 167.307
1383 23.5 13.75 1.4 18.1779 -62.1333 -168.172
1384 23.75 13.75 1.4 18.4274 -71.9995 -128.855
1385 24 13.75 1.4 18.6769 -65.8868 -47.3401
1386 24.25 13.75 1.4 18.9264 -61.1139 -9.61972
1387 -7 14 1.4 12.3932 -66.4806 -61.3259
1388 -6.75 14 1.4 12.1439 -62.4854 94.8643
1389 -6.5 14 1.4 11.8946 -76.1268 159.93
1390 -6.25 14 1.4 11.6454 -62.0444 -61.4282
1391 -6 14 1.4 11.3962 -75.3199 178.082
1392 -5.75 14 1.4 11.147 -61.9994 141.388
1393 -5.5 14 1.4 10.8979 -77.7215 -63.3757
1394 -5.25 14 1.4 10.6488 -60.9152 -53.355
1395 -5 14 1.4 10.3997 -63.6355 163.438
1396 -4.75 14 1.4 10.1507 -67.5285 93.9602
1397 -4.5 14 1.4 9.90175 -62.4112 -55.5114
1398 -4.25 14 1.4 9.65285 -64.2994 163.264
1399 -4 14 1.4 9.404 -70.3958 32.3636
1400 -3.75 14 1.4 9.15522 -68.6507 -62.0945
1401 -3.5 14 1.4 8.90651 -70.118 150.647
1402 -3.25 14 1.4 8.65787 -66.8734 -4.80093
1403 -3 14 1.4 8.40931 -73.6028 171.971
1404 -2.75 14 1.4 8.16083 -57.232 -27.7724
1405 -2.5 14 1.4 7.91246 -57.8085 -53.1329
1406 -2.25 14 1.4 7.66419 -60.8406 -25.5611
1407 -2 14 1.4 7.41603 -55.2639 -23.1223
1408 -1.75 14 1.4 7.16801 -63.0545 -23.2511
1409 -1.5 14 1.4 6.92012 -60.8067 -32.6197
1410 -1.25 14 1.4 6.6724 -56.7933 126.057
1411 -1 14 1.4 6.42485 -63.1861 -44.3187
1412 -0.75 14 1.4 6.17749 -52.3905 6.49928
1413 -0.5 14 1.4 5.93036 -57.3563 74.2099
1414 -0.25 14 1.4 5.68348 -59.44 37.4372
1415 -1.77636e-15 14 1.4 5.43689 -66.122 -16.9702
1416 0.25 14 1.4 5.19062 -69.4387 111.548
1417 0.5 14 1.4 4.94473 -64.4304 102.972
1418 0.75 14 1.4 4.69927 -57.4441 -144.874
1419 1 14 1.4 4.45431 -53.4724 158.517
1420 1.25 14 1.4 4.20995 -52.5175 118.044
1421 1.5 14 1.4 3.96629 -55.0399 113.776
1422 1.75 14 1.4 3.72347 -64.4763 106.286
1423 2 14 1.4 3.48167 -52.9863 120.805
1424 2.25 14 1.4 3.24111 -55.3265 38.0124
1425 2.5 14 1.4 3.0021 -51.7031 72.2125
1426 2.75 14 1.4 2.76502 -50.3136 6.00635
1427 3 14 1.4 2.53044 -47.7717 16.5329
1428 3.25 14 1.4 2.29911 -51.3316 -37.8533
1429 3.5 14 1.4 2.07212 -48.2259 -60.955
1430 3.75 14 1.4 1.85107 -47.477 15.9583
1431 4 14 1.4 1.63837 -45.43 -63.1441
1432 4.25 14 1.4 1.43772 -44.2022 175.966
1433 4.5 14 1.4 1.25491 -42.5966 -28.2919
1434 4.75 14 1.4 1.0989 -40.2197 93.2378
1435 5 14 1.4 0.982532 -38.3108 69.4704
1436 5.25 14 1.4 0.92095 -37.8155 -103.36
1437 5.5 14 1.4 0.925164 -36.5358 66.6959
1438 5.75 14 1.4 0.994338 -35.8645 -62.8894
1439 6 14 1.4 1.11646 -39.7553 3.08671
1440 6.25 14 1.4 1.27643 -39.6815 -56.963
1441 6.5 14 1.4 1.46186 -39.5615 -160.157
1442 6.75 14 1.4 1.66428 -47.7754 4.68403
1443 7 14 1.4 1.87819 -46.4233 118.276
1444 7.25 14 1.4 2.10009 -46.226 -155.756
1445 7.5 14 1.4 2.3277 -48.3193 -129.05
1446 7.75 14 1.4 2.55948 -52.5993 -109.71
1447 8 14 1.4 2.79441 -53.2392 -122.424
1448 8.25 14 1.4 3.03175 -60.4437 -117.245
1449 8.5 14 1.4 3.27098 -55.406 48.3746
1450 8.75 14 1.4 3.5117 -54.3142 -47.4132
1451 9 14 1.4 3.75364 -58.131 4.48626
1452 9.25 14 1.4 3.99658 -58.2826 -9.94035
1453 9.5 14 1.4 4.24033 -63.2782 -25.6332
1454 9.75 14 1.4 4.48477 -61.8108 -25.5353
1455 10 14 1.4 4.72979 -63.1211 55.5071
1456 10.25 14 1.4 4.97531 -55.7002 -13.239
1457 10.5 14 1.4 5.22126 -54.9065 -20.6248
1458 10.75 14 1.4 5.46757 -53.8289 -76.5547
1459 11 14 1.4 5.7142 -61.0134 -78.8502
1460 11.25 14 1.4 5.96111 -57.5728 -13.013
1461 11.5 14 1.4 6.20827 -60.3147 -29.516
1462 11.75 14 1.4 6.45565 -57.6387 -124.932
1463 12 14 1.4 6.70322 -59.1581 100.548
1464 12.25 14 1.4 6.95097 -63.8637 -48.5012
1465 12.5 14 1.4 7.19887 -60.3013 -78.954
1466 12.75 14 1.4 7.44691 -58.3812 -58.8105
1467 13 14 1.4 7.69508 -68.061 116.793
1468 13.25 14 1.4 7.94337 -63.9874 -63.1321
1469 13.5 14 1.4 8.19176 -65.637 -158.333
1470 13.75 14 1.4 8.44024 -74.8183 -68.5138
1471 14 14 1.4 8.68881 -74.9363 -107.618
1472 14.25 14 1.4 8.93746 -64.8938 179.245
1473 14.5 14 1.4 9.18618 -65.0166 -92.0846
1474 14.75 14 1.4 9.43498 -61.8161 130.855
1475 15 14 1.4 9.68383 -62.9553 -165.498
1476 15.25 14 1.4 9.93274 -57.9048 -20.402
1477 15.5 14 1.4 10.1817 -64.1789 88.5803
1478 15.75 14 1.4 10.4307 -77.175 -34.1421
1479 16 14 1.4 10.6798 -56.9645 -58.2334
1480 16.25 14 1.4 10.9289 -67.8694 46.0189
1481 16.5 14 1.4 11.178 -60.5018 -138.432
1482 16.75 14 1.4 11.4272 -63.6179 -34.7708
1483 17 14 1.4 11.6764 -58.6682 -20.9507
1484 17.25 14 1.4 11.9257 -58.1557 161.591
1485 17.5 14 1.4 12.1749 -66.0201 -168.412
1486 17.75 14 1.4 12.4243 -58.3446 -70.352
1487 18 14 1.4 12.6736 -70.9171 167.548
1488 18.25 14 1.4 12.923 -61.1369 124.363
1489 18.5 14 1.4 13.1723 -67.2601 161.503
1490 18.75 14 1.4 13.4217 -66.8031 -163.716
1491 19 14 1.4 13.6712 -65.4573 154.866
1492 19.25 14 1.4 13.9206 -67.8745 45.4376
1493 19.5 14 1.4 14.1701 -63.951 17.3386
1494 19.75 14 1.4 14.4196 -64.5584 3.10693
1495 20 14 1.4 14.6691 -66.424 63.2741
1496 20.25 14 1.4 14.9186 -67.2659 131.335
1497 20.5 14 1.4 15.1681 -74.9961 -126.051
1498 20.75 14 1.4 15.4177 -65.156 -80.6039
1499 21 14 1.4 15.6673 -63.6549 -52.4555
1500 21.25 14 1.4 15.9168 -63.0432 -19.5119
1501 21.5 14 1.4 16.1664 -66.3094 31.6808
1502 21.75 14 1.4 16.416 -65.2104 102.389
1503 22 14 1.4 16.6657 -70.7329 154.921
1504 22.25 14 1.4 16.9153 -62.8572 -147.834
1505 22.5 14 1.4 17.1649 -65.7789 -128.099
1506 22.75 14 1.4 17.4146 -68.5456 -109.692
1507 23 14 1.4 17.6642 -68.1405 -42.0761
1508 23.25 14 1.4 17.9139 -69.8488 -38.29
1509 23.5 14 1.4 18.1636 -67.2246 108.077
1510 23.75 14 1.4 18.4133 -71.0875 137.76
1511 24 14 1.4 18.663 -71.3583 48.6892
1512 24.25 14 1.4 18.9127 -73.0755 63.716
1513 -7 14.25 1.4 12.3773 -58.2439 139.996
1514 -6.75 14.25 1.4 12.1277 -65.8202 28.0459
1515 -6.5 14.25 1.4 11.878 -59.8838 19.9097
1516 -6.25 14.25 1.4 11.6284 -64.6222 87.7101
1517 -6 14.25 1.4 11.3789 -62.8874 175.392
1518 -5.75 14.25 1.4 11.1293 -62.2134 99.3048
1519 -5.5 14.25 1.4 10.8797 -64.1251 -31.0729
1520 -5.25 14.25 1.4 10.6302 -58.3841 -159.166
1521 -5 14.25 1.4 10.3807 -64.4631 176.332
1522 -4.75 14.25 1.4 10.1313 -71.7502 -139.871
1523 -4.5 14.25 1.4 9.8818 -56.8444 -119.812
1524 -4.25 14.25 1.4 9.63238 -72.293 -86.957
1525 -4 14.25 1.4 9.383 -61.771 -31.8106
1526 -3.75 14.25 1.4 9.13364 -71.1426 104.87
1527 -3.5 14.25 1.4 8.88432 -58.5188 -8.60985
1528 -3.25 14.25 1.4 8.63504 -60.9969 -16.7769
1529 -3 14.25 1.4 8.3858 -59.184 0.443998
1530 -2.75 14.25 1.4 8.13661 -55.7253 23.4377
1531 -2.5 14.25 1.4 7.88748 -61.4876 15.2381
1532 -2.25 14.25 1.4 7.63839 -57.6098 43.4466
1533 -2 14.25 1.4 7.38937 -62.5145 -169.868
1534 -1.75 14.25 1.4 7.14042 -65.6384 43.2447
1535 -1.5 14.25 1.4 6.89154 -56.1171 173.675
1536 -1.25 14.25 1.4 6.64275 -62.9693 -107.943
1537 -1 14.25 1.4 6.39406 -58.7443 116.915
1538 -0.75 14.25 1.4 6.14546 -54.7648 -174.983
1539 -0.5 14.25 1.4 5.89699 -57.1966 -142.198
1540 -0.25 14.25 1.4 5.64865 -56.3535 150.159
1541 -1.77636e-15 14.25 1.4 5.40047 -53.4934 143.493
1542 0.25 14.25 1.4 5.15246 -52.747 -175.584
1543 0.5 14.25 1.4 4.90465 -53.7332 -158.42
1544 0.75 14.25 1.4 4.65708 -52.0623 -121.305
1545 1 14.25 1.4 4.40978 -54.9047 -151.456
1546 1.25 14.25 1.4 4.16281 -53.6631 -88.6101
1547 1.5 14.25 1.4 3.91622 -52.1049 -105.614
1548 1.75 14.25 1.4 3.67009 -53.5219 -95.019
1549 2 14.25 1.4 3.42452 -57.8681 -145.593
1550 2.25 14.25 1.4 3.17964 -48.6892 -64.6468
1551 2.5 14.25 1.4 2.93562 -51.8977 -93.35
1552 2.75 14.25 1.4 2.6927 -47.929 -83.1481
1553 3 14.25 1.4 2.45121 -53.1882 -87.2834
1554 3.25 14.25 1.4 2.21161 -47.351 -127.586
1555 3.5 14.25 1.4 1.97458 -48.2495 -151.644
1556 3.75 14.25 1.4 1.7412 -46.6485 173.829
1557 4 14.25 1.4 1.51312 -44.1863 123.743
1558 4.25 14.25 1.4 1.29318 -46.1744 -145.178
1559 4.5 14.25 1.4 1.08632 -39.2204 143.397
1560 4.75 14.25 1.4 0.901598 -40.1246 -30.1813
1561 5 14.25 1.4 0.755419 -35.163 30.9023
1562 5.25 14.25 1.4 0.673378 -51.9545 54.9464
1563 5.5 14.25 1.4 0.679129 -33.1079 87.5454
1564 5.75 14.25 1.4 0.770711 -35.7919 -68.937
1565 6 14.25 1.4 0.922917 -38.1892 -71.148
1566 6.25 14.25 1.4 1.11111 -40.2201 164.505
1567 6.5 14.25 1.4 1.31998 -43.2342 -37.875
1568 6.75 14.25 1.4 1.54114 -45.3453 64.9601
1569 7 14.25 1.4 1.77 -44.8648 87.643
1570 7.25 14.25 1.4 2.00391 -49.2314 138.29
1571 7.5 14.25 1.4 2.24131 -46.0201 149.112
1572 7.75 14.25 1.4 2.48118 -48.3041 160.303
1573 8 14.25 1.4 2.72287 -53.1829 -179.516
1574 8.25 14.25 1.4 2.96594 -57.118 -171.56
1575 8.5 14.25 1.4 3.21007 -50.9614 114.593
1576 8.75 14.25 1.4 3.45505 -55.8012 -175.573
1577 9 14.25 1.4 3.70069 -48.8191 126.075
1578 9.25 14.25 1.4 3.94689 -51.059 139.623
1579 9.5 14.25 1.4 4.19353 -53.0056 178.813
1580 9.75 14.25 1.4 4.44055 -59.3066 172.372
1581 10 14.25 1.4 4.68788 -51.984 169.046
1582 10.25 14.25 1.4 4.93549 -58.5587 157.087
1583 10.5 14.25 1.4 5.18332 -62.4289 102.612
1584 10.75 14.25 1.4 5.43135 -55.5891 49.0443
1585 11 14.25 1.4 5.67956 -60.3178 10.1296
1586 11.25 14.25 1.4 5.92791 -59.8605 51.2186
1587 11.5 14.25 1.4 6.1764 -54.1876 71.3739
1588 11.75 14.25 1.4 6.42501 -51.0888 42.4315
1589 12 14.25 1.4 6.67372 -54.9659 0.0750383
1590 12.25 14.25 1.4 6.92252 -58.3133 13.2174
1591 12.5 14.25 1.4 7.1714 -55.0084 15.6124
1592 12.75 14.25 1.4 7.42037 -62.3539 -157.215
1593 13 14.25 1.4 7.66939 -58.941 -120.404
1594 13.25 14.25 1.4 7.91848 -57.057 -152.485
1595 13.5 14.25 1.4 8.16763 -72.5892 -172.666
1596 13.75 14.25 1.4 8.41682 -58.5618 178.22
1597 14 14.25 1.4 8.66607 -59.8672 156.661
1598 14.25 14.25 1.4 8.91535 -58.8229 142.151
1599 14.5 14.25 1.4 9.16468 -64.4142 118.076
1600 14.75 14.25 1.4 9.41404 -62.1939 32.1026
1601 15 14.25 1.4 9.66343 -63.1479 138.791
1602 15.25 14.25 1.4 9.91285 -66.4852 -145.026
1603 15.5 14.25 1.4 10.1623 -57.5944 49.2034
1604 15.75 14.25 1.4 10.4118 -58.6757 -176.755
1605 16 14.25 1.4 10.6613 -56.1293 -28.7373
1606 16.25 14.25 1.4 10.9108 -62.8423 8.16715
1607 16.5 14.25 1.4 11.1604 -63.059 146.34
1608 16.75 14.25 1.4 11.4099 -55.8941 -79.4833
1609 17 14.25 1.4 11.6595 -59.5276 18.2686
1610 17.25 14.25 1.4 11.9091 -65.6818 133.991
1611 17.5 14.25 1.4 12.1587 -59.5376 -74.9334
1612 17.75 14.25 1.4 12.4084 -67.8896 -56.815
1613 18 14.25 1.4 12.658 -67.2638 15.9204
1614 18.25 14.25 1.4 12.9077 -74.1752 -109.463
1615 18.5 14.25 1.4 13.1573 -67.2738 -148.326
1616 18.75 14.25 1.4 13.407 -69.309 -104.204
1617 19 14.25 1.4 13.6567 -72.6609 -138.196
1618 19.25 14.25 1.4 13.9064 -71.548 126.108
1619 19.5 14.25 1.4 14.1562 -71.5314 89.0676
1620 19.75 14.25 1.4 14.4059 -63.2457 63.1171
1621 20 14.25 1.4 14.6556 -66.5104 74.2669
1622 20.25 14.25 1.4 14.9054 -72.5821 63.9589
1623 20.5 14.25 1.4 15.1551 -86.9001 -108.492
1624 20.75 14.25 1.4 15.4049 -69.5204 -56.6125
1625 21 14.25 1.4 15.6547 -72.6467 -32.3883
1626 21.25 14.25 1.4 15.9044 -69.8036 12.0864
1627 21.5 14.25 1.4 16.1542 -67.9684 30.9986
1628 21.75 14.25 1.4 16.404 -69.3466 127.483
1629 22 14.25 1.4 16.6538 -64.2787 163.716
1630 22.25 14.25 1.4 16.9036 -64.0352 -149.903
1631 22.5 14.25 1.4 17.1534 -62.0575 -109.5
1632 22.75 14.25 1.4 17.4032 -68.3049 -95.1095
1633 23 14.25 1.4 17.6531 -65.5538 -25.958
1634 23.25 14.25 1.4 17.9029 -63.4823 35.7964
1635 23.5 14.25 1.4 18.1527 -61.5316 83.9119
1636 23.75 14.25 1.4 18.4026 -60.1813 112.597
1637 24 14.25 1.4 18.6524 -60.0242 139.759
1638 24.25 14.25 1.4 18.9022 -71.1393 156.246
