#Rx
# X(m), Y(m), Z(m), Distance(m), Power (dBm) Phase (deg)
1 -7 11.25 1.4 12.8912 -64.097 103.699
2 -6.75 11.25 1.4 12.6517 -57.3858 58.5769
3 -6.5 11.25 1.4 12.4127 -52.037 53.5369
4 -6.25 11.25 1.4 12.174 -50.6321 50.1903
5 -6 11.25 1.4 11.9359 -52.4018 32.4638
6 -5.75 11.25 1.4 11.6982 -59.0267 -2.25817
7 -5.5 11.25 1.4 11.461 -57.0276 -34.5462
8 -5.25 11.25 1.4 11.2244 -59.2953 -78.7958
9 -5 11.25 1.4 10.9884 -58.081 -59.7732
10 -4.75 11.25 1.4 10.7531 -55.2727 -112.191
11 -4.5 11.25 1.4 10.5184 -57.1202 -136.129
12 -4.25 11.25 1.4 10.2844 -55.6794 -157.55
13 -4 11.25 1.4 10.0512 -53.4672 162.691
14 -3.75 11.25 1.4 9.81886 -53.7111 136.098
15 -3.5 11.25 1.4 9.58737 -54.0357 106.327
16 -3.25 11.25 1.4 9.35684 -52.8006 49.3276
17 -3 11.25 1.4 9.12734 -52.2432 -29.6371
18 -2.75 11.25 1.4 8.89893 -52.6711 -16.5358
19 -2.5 11.25 1.4 8.67173 -52.3143 -85.9266
20 -2.25 11.25 1.4 8.4458 -54.2134 -131.763
21 -2 11.25 1.4 8.22128 -52.7598 167.427
22 -1.75 11.25 1.4 7.99826 -60.5723 -151.944
23 -1.5 11.25 1.4 7.77688 -62.2162 149.855
24 -1.25 11.25 1.4 7.5573 -61.25 88.5166
25 -1 11.25 1.4 7.33965 -62.6078 -9.74181
26 -0.75 11.25 1.4 7.12413 -68.1607 -77.2677
27 -0.5 11.25 1.4 6.91094 -65.1844 -146.897
28 -0.25 11.25 1.4 6.70029 -61.0969 112.948
29 -1.77636e-15 11.25 1.4 6.49243 -61.9849 -16.118
30 0.25 11.25 1.4 6.28764 -58.6072 -96.3645
31 0.5 11.25 1.4 6.08623 -56.0965 123.941
32 0.75 11.25 1.4 5.88854 -50.4161 -44.9879
33 1 11.25 1.4 5.69497 -51.1032 160.738
34 1.25 11.25 1.4 5.50595 -55.2033 -19.7247
35 1.5 11.25 1.4 5.32196 -58.5092 -157.312
36 1.75 11.25 1.4 5.14355 -52.1303 19.5715
37 2 11.25 1.4 4.9713 -53.6971 -177.134
38 2.25 11.25 1.4 4.8059 -51.3928 -45.8008
39 2.5 11.25 1.4 4.64805 -54.7659 52.7782
40 2.75 11.25 1.4 4.49858 -54.9361 161.132
41 3 11.25 1.4 4.35832 -51.3558 -171.449
42 3.25 11.25 1.4 4.22821 -48.8186 -145.644
43 3.5 11.25 1.4 4.1092 -50.4868 -165.376
44 3.75 11.25 1.4 4.00229 -49.6351 139.706
45 4 11.25 1.4 3.90846 -49.5466 60.3143
46 4.25 11.25 1.4 3.82869 -53.1172 -67.2041
47 4.5 11.25 1.4 3.76386 -56.1984 123.137
48 4.75 11.25 1.4 3.71476 -60.1024 -4.32645
49 5 11.25 1.4 3.68201 -52.4535 69.5158
50 5.25 11.25 1.4 3.66606 -51.8976 117.425
51 5.5 11.25 1.4 3.66712 -51.3808 71.7616
52 5.75 11.25 1.4 3.68518 -51.6188 -8.90833
53 6 11.25 1.4 3.71999 -49.8069 166.382
54 6.25 11.25 1.4 3.77109 -50.4829 -7.12232
55 6.5 11.25 1.4 3.83782 -47.7545 156.827
56 6.75 11.25 1.4 3.9194 -46.2212 -84.8755
57 7 11.25 1.4 4.0149 -48.2705 -5.69251
58 7.25 11.25 1.4 4.12337 -47.0677 46.0938
59 7.5 11.25 1.4 4.24382 -45.9232 45.1164
60 7.75 11.25 1.4 4.37525 -47.0746 25.7418
61 8 11.25 1.4 4.5167 -55.3899 -29.1544
62 8.25 11.25 1.4 4.66726 -52.5172 -134.467
63 8.5 11.25 1.4 4.82609 -51.1438 122.534
64 8.75 11.25 1.4 4.99238 -51.6325 -1.22981
65 9 11.25 1.4 5.16543 -50.4095 -167.195
66 9.25 11.25 1.4 5.34457 -50.408 23.0018
67 9.5 11.25 1.4 5.52922 -51.2421 -158.787
68 9.75 11.25 1.4 5.71883 -49.9546 -5.88361
69 10 11.25 1.4 5.91293 -49.388 153.616
70 10.25 11.25 1.4 6.1111 -51.5612 -69.7414
71 10.5 11.25 1.4 6.31295 -53.7528 54.4179
72 10.75 11.25 1.4 6.51814 -51.2232 159.41
73 11 11.25 1.4 6.72636 -53.537 -85.6597
74 11.25 11.25 1.4 6.93734 -53.3435 14.6207
75 11.5 11.25 1.4 7.15084 -55.7388 85.6005
76 11.75 11.25 1.4 7.36663 -53.0593 168.834
77 12 11.25 1.4 7.58453 -65.0383 -55.0806
78 12.25 11.25 1.4 7.80435 -59.5499 -13.2458
79 12.5 11.25 1.4 8.02593 -63.9336 -45.6335
80 12.75 11.25 1.4 8.24914 -52.7396 84.2083
81 13 11.25 1.4 8.47385 -52.8678 143.119
82 13.25 11.25 1.4 8.69994 -52.2526 -177.58
83 13.5 11.25 1.4 8.9273 -54.8801 -120.8
84 13.75 11.25 1.4 9.15584 -55.4113 -82.984
85 14 11.25 1.4 9.38548 -53.8492 -35.3834
86 14.25 11.25 1.4 9.61613 -54.3117 19.0639
87 14.5 11.25 1.4 9.84773 -55.5322 41.6998
88 14.75 11.25 1.4 10.0802 -54.9591 91.3304
89 15 11.25 1.4 10.3135 -56.7407 115.415
90 15.25 11.25 1.4 10.5476 -56.2048 134.714
91 15.5 11.25 1.4 10.7823 -59.8565 -159.772
92 15.75 11.25 1.4 11.0178 -51.2337 -150.174
93 16 11.25 1.4 11.2539 -48.6822 -135.89
94 16.25 11.25 1.4 11.4905 -50.698 -129.151
95 16.5 11.25 1.4 11.7277 -55.3434 -98.2008
96 16.75 11.25 1.4 11.9655 -63.493 -58.9605
97 17 11.25 1.4 12.2037 -56.2512 -57.0961
98 17.25 11.25 1.4 12.4424 -55.1436 -73.0261
99 17.5 11.25 1.4 12.6815 -56.6576 -52.1974
100 17.75 11.25 1.4 12.9211 -61.0226 -64.2178
101 18 11.25 1.4 13.161 -60.927 -11.5042
102 18.25 11.25 1.4 13.4013 -59.2908 -14.1815
103 18.5 11.25 1.4 13.6419 -57.3564 -29.4958
104 18.75 11.25 1.4 13.8829 -63.1277 28.407
105 19 11.25 1.4 14.1242 -57.6175 -32.0383
106 19.25 11.25 1.4 14.3658 -65.7333 65.5554
107 19.5 11.25 1.4 14.6076 -56.8878 8.76872
108 19.75 11.25 1.4 14.8498 -59.9946 -31.5665
109 20 11.25 1.4 15.0922 -61.065 54.777
110 20.25 11.25 1.4 15.3348 -56.139 -12.5393
111 20.5 11.25 1.4 15.5777 -72.2382 -54.5786
112 20.75 11.25 1.4 15.8208 -62.2537 12.9478
113 21 11.25 1.4 16.0641 -63.1076 23.5121
114 21.25 11.25 1.4 16.3076 -65.7417 -5.56128
115 21.5 11.25 1.4 16.5513 -65.0666 -0.147525
116 21.75 11.25 1.4 16.7952 -64.5346 -10.7623
117 22 11.25 1.4 17.0393 -65.4513 -8.16168
118 22.25 11.25 1.4 17.2835 -65.1597 8.81404
119 22.5 11.25 1.4 17.5279 -68.9542 -23.3938
120 22.75 11.25 1.4 17.7724 -66.7578 -17.0821
121 23 11.25 1.4 18.0171 -64.0127 -22.5206
122 23.25 11.25 1.4 18.262 -65.812 -10.7377
123 23.5 11.25 1.4 18.507 -69.4653 -34.085
124 23.75 11.25 1.4 18.7521 -64.4067 -50.7359
125 24 11.25 1.4 18.9973 -62.3717 -34.1994
126 24.25 11.25 1.4 19.2427 -62.6741 -22.2359
127 -7 11.5 1.4 12.8224 -56.3564 -98.2108
128 -6.75 11.5 1.4 12.5816 -55.0263 -161.719
129 -6.5 11.5 1.4 12.3412 -52.2667 -124.521
130 -6.25 11.5 1.4 12.1011 -53.551 -111.292
131 -6 11.5 1.4 11.8615 -57.4321 -154.689
132 -5.75 11.5 1.4 11.6223 -57.3221 -153.4
133 -5.5 11.5 1.4 11.3836 -54.5514 171.694
134 -5.25 11.5 1.4 11.1453 -56.97 130.037
135 -5 11.5 1.4 10.9076 -54.9097 139.514
136 -4.75 11.5 1.4 10.6705 -56.9925 92.9515
137 -4.5 11.5 1.4 10.4339 -58.2098 114.751
138 -4.25 11.5 1.4 10.198 -58.7809 86.8795
139 -4 11.5 1.4 9.9628 -57.1038 49.5958
140 -3.75 11.5 1.4 9.72832 -59.091 41.0194
141 -3.5 11.5 1.4 9.49463 -51.9273 49.5053
142 -3.25 11.5 1.4 9.26179 -62.7011 -46.6428
143 -3 11.5 1.4 9.02987 -59.0208 -42.4534
144 -2.75 11.5 1.4 8.79894 -53.5199 -100.492
145 -2.5 11.5 1.4 8.56908 -56.5259 -132.413
146 -2.25 11.5 1.4 8.34038 -53.6831 179.482
147 -2 11.5 1.4 8.11293 -55.6672 121.486
148 -1.75 11.5 1.4 7.88685 -54.1392 89.061
149 -1.5 11.5 1.4 7.66226 -53.5886 15.3261
150 -1.25 11.5 1.4 7.43929 -62.6215 84.588
151 -1 11.5 1.4 7.21809 -64.931 10.0325
152 -0.75 11.5 1.4 6.99883 -63.243 -34.7065
153 -0.5 11.5 1.4 6.78169 -57.8369 -91.6018
154 -0.25 11.5 1.4 6.5669 -55.0664 151.936
155 -1.77636e-15 11.5 1.4 6.35468 -60.3541 42.3477
156 0.25 11.5 1.4 6.1453 -59.9838 -37.167
157 0.5 11.5 1.4 5.93906 -58.322 -110.256
158 0.75 11.5 1.4 5.73631 -55.8645 113.325
159 1 11.5 1.4 5.53742 -53.3829 -59.2535
160 1.25 11.5 1.4 5.34283 -50.3402 140.889
161 1.5 11.5 1.4 5.15302 -55.6843 -23.8002
162 1.75 11.5 1.4 4.96854 -54.5935 176.059
163 2 11.5 1.4 4.79 -53.5039 -27.2618
164 2.25 11.5 1.4 4.61811 -55.1345 103.71
165 2.5 11.5 1.4 4.45362 -54.6483 -106.729
166 2.75 11.5 1.4 4.29738 -51.097 -0.909692
167 3 11.5 1.4 4.15033 -50.5041 71.4604
168 3.25 11.5 1.4 4.01348 -52.6177 131.466
169 3.5 11.5 1.4 3.88791 -51.4789 124.708
170 3.75 11.5 1.4 3.77473 -50.9446 96.0485
171 4 11.5 1.4 3.6751 -49.9411 58.1735
172 4.25 11.5 1.4 3.59015 -49.8399 -60.4873
173 4.5 11.5 1.4 3.52093 -52.5956 127.432
174 4.75 11.5 1.4 3.46839 -51.9479 -79.6694
175 5 11.5 1.4 3.43329 -50.4123 35.3902
176 5.25 11.5 1.4 3.41618 -50.1193 92.8571
177 5.5 11.5 1.4 3.41732 -50.3854 87.1335
178 5.75 11.5 1.4 3.43669 -49.5082 -2.83592
179 6 11.5 1.4 3.47399 -47.1001 151.887
180 6.25 11.5 1.4 3.52865 -45.526 -11.9423
181 6.5 11.5 1.4 3.59988 -44.2956 154.495
182 6.75 11.5 1.4 3.68673 -47.4375 -91.165
183 7 11.5 1.4 3.7881 -49.0878 -51.2304
184 7.25 11.5 1.4 3.90288 -48.4179 -29.118
185 7.5 11.5 1.4 4.02992 -48.2672 -43.0266
186 7.75 11.5 1.4 4.1681 -47.064 -91.5544
187 8 11.5 1.4 4.31635 -46.6299 -165.911
188 8.25 11.5 1.4 4.47366 -49.8325 98.1828
189 8.5 11.5 1.4 4.63912 -48.2234 -54.4479
190 8.75 11.5 1.4 4.81188 -49.0129 156.483
191 9 11.5 1.4 4.99119 -49.8789 -7.39048
192 9.25 11.5 1.4 5.17636 -49.0831 164.835
193 9.5 11.5 1.4 5.3668 -50.7848 -19.853
194 9.75 11.5 1.4 5.56195 -53.3897 113.867
195 10 11.5 1.4 5.76134 -52.0707 -131.881
196 10.25 11.5 1.4 5.96455 -52.4522 -2.63802
197 10.5 11.5 1.4 6.17119 -52.4297 104.631
198 10.75 11.5 1.4 6.38094 -53.1378 -168.737
199 11 11.5 1.4 6.5935 -50.6704 -65.8482
200 11.25 11.5 1.4 6.8086 -51.9898 27.0315
201 11.5 11.5 1.4 7.02601 -53.9256 119.557
202 11.75 11.5 1.4 7.24552 -55.1387 158.393
203 12 11.5 1.4 7.46695 -52.9724 -113.962
204 12.25 11.5 1.4 7.69013 -53.9684 -65.5515
205 12.5 11.5 1.4 7.91491 -68.9047 -79.8082
206 12.75 11.5 1.4 8.14117 -53.4145 -9.18489
207 13 11.5 1.4 8.36878 -50.413 59.8032
208 13.25 11.5 1.4 8.59763 -49.7548 113.113
209 13.5 11.5 1.4 8.82763 -53.6885 -177.807
210 13.75 11.5 1.4 9.05868 -55.2919 -132.477
211 14 11.5 1.4 9.29072 -57.3777 -99.0529
212 14.25 11.5 1.4 9.52367 -56.4298 -72.4634
213 14.5 11.5 1.4 9.75746 -61.2472 -49.8959
214 14.75 11.5 1.4 9.99204 -57.5074 -26.0712
215 15 11.5 1.4 10.2273 -59.3978 -5.98549
216 15.25 11.5 1.4 10.4633 -59.7595 -9.98922
217 15.5 11.5 1.4 10.7 -62.679 4.56497
218 15.75 11.5 1.4 10.9372 -58.3636 66.5746
219 16 11.5 1.4 11.175 -52.8396 64.8225
220 16.25 11.5 1.4 11.4133 -51.3251 48.0057
221 16.5 11.5 1.4 11.6521 -51.831 57.4403
222 16.75 11.5 1.4 11.8913 -54.9282 87.4316
223 17 11.5 1.4 12.131 -56.1103 150.187
224 17.25 11.5 1.4 12.3711 -55.9909 137.332
225 17.5 11.5 1.4 12.6116 -54.4572 163.214
226 17.75 11.5 1.4 12.8524 -80.3864 -49.1091
227 18 11.5 1.4 13.0936 -58.6972 176.23
228 18.25 11.5 1.4 13.3351 -58.8048 -162.746
229 18.5 11.5 1.4 13.5769 -73.4669 -171.75
230 18.75 11.5 1.4 13.819 -58.614 -149.372
231 19 11.5 1.4 14.0614 -58.5595 143.107
232 19.25 11.5 1.4 14.3041 -70.4349 -118.213
233 19.5 11.5 1.4 14.5469 -58.9709 -160.282
234 19.75 11.5 1.4 14.7901 -59.8779 130.305
235 20 11.5 1.4 15.0334 -62.7272 -122.594
236 20.25 11.5 1.4 15.277 -56.6333 162.98
237 20.5 11.5 1.4 15.5208 -61.5261 -176.954
238 20.75 11.5 1.4 15.7648 -62.1984 167.619
239 21 11.5 1.4 16.0089 -62.4072 164.002
240 21.25 11.5 1.4 16.2533 -61.665 164.392
241 21.5 11.5 1.4 16.4978 -62.9851 176.753
242 21.75 11.5 1.4 16.7424 -67.004 158.228
243 22 11.5 1.4 16.9872 -64.2521 137.708
244 22.25 11.5 1.4 17.2322 -61.1853 138.766
245 22.5 11.5 1.4 17.4773 -61.0648 144.532
246 22.75 11.5 1.4 17.7226 -63.3914 139.446
247 23 11.5 1.4 17.968 -62.0416 119.753
248 23.25 11.5 1.4 18.2135 -60.0552 117.26
249 23.5 11.5 1.4 18.4591 -60.4221 124.534
250 23.75 11.5 1.4 18.7048 -62.8978 118.427
251 24 11.5 1.4 18.9507 -61.4995 103.241
252 24.25 11.5 1.4 19.1967 -61.1966 90.6597
253 -7 11.75 1.4 12.7581 -57.5469 59.87
254 -6.75 11.75 1.4 12.5161 -52.3296 51.3892
255 -6.5 11.75 1.4 12.2744 -51.7135 68.0048
256 -6.25 11.75 1.4 12.033 -60.035 67.5312
257 -6 11.75 1.4 11.792 -57.2602 1.01497
258 -5.75 11.75 1.4 11.5513 -55.4574 6.16181
259 -5.5 11.75 1.4 11.3111 -57.1576 7.18528
260 -5.25 11.75 1.4 11.0713 -63.0691 15.0416
261 -5 11.75 1.4 10.832 -55.1728 10.5744
262 -4.75 11.75 1.4 10.5931 -58.2498 10.954
263 -4.5 11.75 1.4 10.3548 -53.6719 -10.5652
264 -4.25 11.75 1.4 10.1171 -54.0217 -21.4035
265 -4 11.75 1.4 9.87991 -52.7057 -80.5512
266 -3.75 11.75 1.4 9.64342 -52.5008 -62.3024
267 -3.5 11.75 1.4 9.40762 -53.9048 -96.8523
268 -3.25 11.75 1.4 9.17257 -58.168 -113.995
269 -3 11.75 1.4 8.93834 -55.5672 -153.548
270 -2.75 11.75 1.4 8.70498 -54.828 162.646
271 -2.5 11.75 1.4 8.47257 -55.1616 141.822
272 -2.25 11.75 1.4 8.24119 -55.8654 92.8692
273 -2 11.75 1.4 8.01093 -56.5374 72.0358
274 -1.75 11.75 1.4 7.78189 -52.4172 30.8823
275 -1.5 11.75 1.4 7.55417 -53.0617 -14.4258
276 -1.25 11.75 1.4 7.32791 -51.6122 -80.0677
277 -1 11.75 1.4 7.10324 -55.8884 -142.149
278 -0.75 11.75 1.4 6.88032 -59.8914 -46.3684
279 -0.5 11.75 1.4 6.65933 -57.1666 -122.628
280 -0.25 11.75 1.4 6.44045 -59.2579 149.453
281 -1.77636e-15 11.75 1.4 6.22392 -60.2233 99.8401
282 0.25 11.75 1.4 6.00999 -50.9733 3.31485
283 0.5 11.75 1.4 5.79894 -51.7808 -136.209
284 0.75 11.75 1.4 5.59111 -64.6156 44.1558
285 1 11.75 1.4 5.38686 -52.2869 80.6808
286 1.25 11.75 1.4 5.18663 -56.5301 -96.2617
287 1.5 11.75 1.4 4.99088 -54.4253 133.408
288 1.75 11.75 1.4 4.80017 -53.5069 -43.8793
289 2 11.75 1.4 4.61513 -56.778 152.501
290 2.25 11.75 1.4 4.43646 -51.5716 -19.0691
291 2.5 11.75 1.4 4.26497 -50.1138 112.879
292 2.75 11.75 1.4 4.10156 -51.9113 -133.696
293 3 11.75 1.4 3.94722 -50.8483 -42.2945
294 3.25 11.75 1.4 3.80307 -52.8929 -5.36736
295 3.5 11.75 1.4 3.6703 -50.9913 65.4105
296 3.75 11.75 1.4 3.55019 -47.2639 55.7266
297 4 11.75 1.4 3.44408 -49.5927 -11.5804
298 4.25 11.75 1.4 3.35327 -52.0437 -108.729
299 4.5 11.75 1.4 3.27906 -61.7846 132.024
300 4.75 11.75 1.4 3.22258 -51.7377 -32.4631
301 5 11.75 1.4 3.18477 -47.6634 67.3494
302 5.25 11.75 1.4 3.16632 -46.5583 115.809
303 5.5 11.75 1.4 3.16754 -46.3463 111.682
304 5.75 11.75 1.4 3.18844 -45.3938 -74.7682
305 6 11.75 1.4 3.22861 -48.2227 171.432
306 6.25 11.75 1.4 3.28735 -48.2967 -14.4404
307 6.5 11.75 1.4 3.3637 -45.7966 124.057
308 6.75 11.75 1.4 3.45648 -46.5247 -156.499
309 7 11.75 1.4 3.56441 -45.892 -98.9682
310 7.25 11.75 1.4 3.68616 -48.6334 -96.5441
311 7.5 11.75 1.4 3.82042 -48.8756 -153.424
312 7.75 11.75 1.4 3.9659 -48.2181 149.228
313 8 11.75 1.4 4.12142 -49.5885 39.717
314 8.25 11.75 1.4 4.2859 -47.0896 -77.8088
315 8.5 11.75 1.4 4.45833 -50.9388 157.625
316 8.75 11.75 1.4 4.63783 -50.5875 -47.1195
317 9 11.75 1.4 4.82361 -49.2698 120.642
318 9.25 11.75 1.4 5.01498 -49.002 -74.9576
319 9.5 11.75 1.4 5.21132 -49.7303 74.938
320 9.75 11.75 1.4 5.41208 -51.8088 -161.314
321 10 11.75 1.4 5.61679 -52.2342 -65.2117
322 10.25 11.75 1.4 5.82504 -48.7319 50.2264
323 10.5 11.75 1.4 6.03647 -52.4198 171.549
324 10.75 11.75 1.4 6.25074 -56.3456 -104.771
325 11 11.75 1.4 6.46757 -52.41 -72.733
326 11.25 11.75 1.4 6.68672 -50.8518 26.9498
327 11.5 11.75 1.4 6.90797 -51.7704 101.977
328 11.75 11.75 1.4 7.13112 -54.8826 154.427
329 12 11.75 1.4 7.35599 -52.0393 -154.694
330 12.25 11.75 1.4 7.58244 -54.9654 -97.2627
331 12.5 11.75 1.4 7.81032 -54.2895 -63.1155
332 12.75 11.75 1.4 8.03952 -52.3858 -60.043
333 13 11.75 1.4 8.26993 -48.3797 9.261
334 13.25 11.75 1.4 8.50144 -49.5141 72.1521
335 13.5 11.75 1.4 8.73397 -51.4949 126.773
336 13.75 11.75 1.4 8.96744 -59.5227 136.617
337 14 11.75 1.4 9.20178 -57.8095 135.897
338 14.25 11.75 1.4 9.43693 -54.7538 158.663
339 14.5 11.75 1.4 9.67282 -55.9208 -161.95
340 14.75 11.75 1.4 9.9094 -54.4192 -148.977
341 15 11.75 1.4 10.1466 -54.2559 -120.27
342 15.25 11.75 1.4 10.3844 -57.5962 -120.126
343 15.5 11.75 1.4 10.6228 -62.9922 -92.6056
344 15.75 11.75 1.4 10.8617 -59.1526 -34.504
345 16 11.75 1.4 11.1011 -56.7142 -35.8203
346 16.25 11.75 1.4 11.341 -56.2865 -63.8162
347 16.5 11.75 1.4 11.5813 -55.6144 -81.3582
348 16.75 11.75 1.4 11.8219 -59.4669 -87.9872
349 17 11.75 1.4 12.063 -66.1423 -73.0478
350 17.25 11.75 1.4 12.3044 -55.37 -80.2517
351 17.5 11.75 1.4 12.5462 -53.4799 -51.9609
352 17.75 11.75 1.4 12.7883 -55.8786 -27.1982
353 18 11.75 1.4 13.0306 -58.5569 -5.48092
354 18.25 11.75 1.4 13.2733 -54.9827 -15.7443
355 18.5 11.75 1.4 13.5162 -66.6645 12.0175
356 18.75 11.75 1.4 13.7594 -56.6901 47.7822
357 19 11.75 1.4 14.0028 -61.6466 -21.8449
358 19.25 11.75 1.4 14.2464 -74.7987 -131.555
359 19.5 11.75 1.4 14.4903 -60.5589 24.0803
360 19.75 11.75 1.4 14.7344 -61.9668 -87.6948
361 20 11.75 1.4 14.9786 -66.8017 90.0737
362 20.25 11.75 1.4 15.2231 -67.0476 -45.7169
363 20.5 11.75 1.4 15.4677 -64.7424 -41.7592
364 20.75 11.75 1.4 15.7125 -64.9262 -48.0318
365 21 11.75 1.4 15.9575 -64.5136 -42.245
366 21.25 11.75 1.4 16.2026 -65.6236 -60.6114
367 21.5 11.75 1.4 16.4478 -64.2664 -80.2063
368 21.75 11.75 1.4 16.6932 -61.9948 -69.7839
369 22 11.75 1.4 16.9388 -67.28 -45.067
370 22.25 11.75 1.4 17.1844 -66.7656 -123.637
371 22.5 11.75 1.4 17.4302 -62.7361 -93.2709
372 22.75 11.75 1.4 17.6761 -64.8652 -89.1417
373 23 11.75 1.4 17.9221 -67.7278 -71.9148
374 23.25 11.75 1.4 18.1683 -64.6214 -109.502
375 23.5 11.75 1.4 18.4145 -64.8115 -117.416
376 23.75 11.75 1.4 18.6608 -63.06 -108.473
377 24 11.75 1.4 18.9072 -62.9127 -113.018
378 24.25 11.75 1.4 19.1538 -65.2501 -136.753
379 -7 12 1.4 12.6984 -54.8635 -139.806
380 -6.75 12 1.4 12.4552 -53.892 -123.135
381 -6.5 12 1.4 12.2123 -56.2494 -90.7241
382 -6.25 12 1.4 11.9697 -66.7445 -10.3715
383 -6 12 1.4 11.7274 -59.0242 -141.318
384 -5.75 12 1.4 11.4854 -55.2583 -128.196
385 -5.5 12 1.4 11.2437 -54.1101 -127.468
386 -5.25 12 1.4 11.0025 -55.1247 -132.716
387 -5 12 1.4 10.7616 -52.946 -163.596
388 -4.75 12 1.4 10.5212 -56.5239 -150.653
389 -4.5 12 1.4 10.2812 -70.8125 -177.652
390 -4.25 12 1.4 10.0417 -57.16 177.928
391 -4 12 1.4 9.8027 -57.6831 143.227
392 -3.75 12 1.4 9.5643 -55.4423 179.503
393 -3.5 12 1.4 9.3265 -54.0447 140.009
394 -3.25 12 1.4 9.08935 -55.2973 135.163
395 -3 12 1.4 8.85292 -53.6859 106.516
396 -2.75 12 1.4 8.61724 -53.9207 74.4559
397 -2.5 12 1.4 8.3824 -54.1973 48.5202
398 -2.25 12 1.4 8.14846 -56.3376 -1.09188
399 -2 12 1.4 7.91551 -56.4982 -2.14029
400 -1.75 12 1.4 7.68362 -54.35 -41.8313
401 -1.5 12 1.4 7.45291 -51.5925 -79.9941
402 -1.25 12 1.4 7.22347 -52.9982 -141.068
403 -1 12 1.4 6.99545 -53.614 -168.802
404 -0.75 12 1.4 6.76898 -53.2445 140.947
405 -0.5 12 1.4 6.54423 -50.8311 80.912
406 -0.25 12 1.4 6.32137 -57.6849 160.13
407 -1.77636e-15 12 1.4 6.10061 -52.4618 68.7021
408 0.25 12 1.4 5.8822 -56.2212 -22.7088
409 0.5 12 1.4 5.6664 -58.0042 -42.5155
410 0.75 12 1.4 5.45351 -52.4296 -174.772
411 1 12 1.4 5.24391 -52.0125 76.3121
412 1.25 12 1.4 5.03799 -55.9285 -2.70367
413 1.5 12 1.4 4.83623 -51.4984 -145.801
414 1.75 12 1.4 4.63917 -52.9816 50.6827
415 2 12 1.4 4.44744 -53.8498 -60.5159
416 2.25 12 1.4 4.26175 -50.5466 96.1877
417 2.5 12 1.4 4.08292 -53.9438 -111.195
418 2.75 12 1.4 3.91191 -50.9371 51.3436
419 3 12 1.4 3.74978 -52.6753 177.809
420 3.25 12 1.4 3.59772 -47.6904 -79.7323
421 3.5 12 1.4 3.45708 -48.0366 -40.5665
422 3.75 12 1.4 3.32929 -51.4369 -15.8062
423 4 12 1.4 3.21589 -50.8856 -52.0238
424 4.25 12 1.4 3.11845 -48.7251 -121.582
425 4.5 12 1.4 3.0385 -54.3782 126.084
426 4.75 12 1.4 2.97746 -48.6959 -40.0497
427 5 12 1.4 2.93651 -45.6272 65.7619
428 5.25 12 1.4 2.91648 -45.1066 119.844
429 5.5 12 1.4 2.91781 -44.2351 111.663
430 5.75 12 1.4 2.94048 -43.6211 -72.4734
431 6 12 1.4 2.98399 -45.8406 168.412
432 6.25 12 1.4 3.04745 -45.1612 -20.7169
433 6.5 12 1.4 3.12966 -44.9296 112.546
434 6.75 12 1.4 3.22917 -47.1288 162.033
435 7 12 1.4 3.34444 -49.1031 169.964
436 7.25 12 1.4 3.47391 -45.4585 150.877
437 7.5 12 1.4 3.61606 -46.7379 113.11
438 7.75 12 1.4 3.76944 -49.1675 -0.211586
439 8 12 1.4 3.93274 -46.7121 -115.511
440 8.25 12 1.4 4.10478 -49.3108 90.8569
441 8.5 12 1.4 4.2845 -45.8921 -74.9286
442 8.75 12 1.4 4.47099 -51.1345 109.984
443 9 12 1.4 4.66343 -49.029 -128.321
444 9.25 12 1.4 4.8611 -49.2073 19.2039
445 9.5 12 1.4 5.06341 -51.6634 139.295
446 9.75 12 1.4 5.26981 -48.1925 -106.269
447 10 12 1.4 5.47984 -50.7053 7.11237
448 10.25 12 1.4 5.6931 -52.982 68.1263
449 10.5 12 1.4 5.90925 -49.6455 163.298
450 10.75 12 1.4 6.12797 -51.2962 -111.571
451 11 12 1.4 6.349 -54.5163 -67.645
452 11.25 12 1.4 6.5721 -50.323 -3.95419
453 11.5 12 1.4 6.79708 -52.0778 62.761
454 11.75 12 1.4 7.02375 -52.9251 120.57
455 12 12 1.4 7.25196 -53.6969 150.33
456 12.25 12 1.4 7.48156 -53.9902 -164.873
457 12.5 12 1.4 7.71242 -52.8966 -142.869
458 12.75 12 1.4 7.94445 -53.5227 -90.1761
459 13 12 1.4 8.17753 -53.2416 -62.6987
460 13.25 12 1.4 8.41159 -53.2179 13.4924
461 13.5 12 1.4 8.64654 -86.9826 -75.9792
462 13.75 12 1.4 8.88231 -58.0913 -33.9499
463 14 12 1.4 9.11883 -51.5598 4.73847
464 14.25 12 1.4 9.35606 -54.6641 48.3128
465 14.5 12 1.4 9.59394 -55.7961 87.2098
466 14.75 12 1.4 9.83242 -58.3583 92.937
467 15 12 1.4 10.0715 -57.5305 78.8958
468 15.25 12 1.4 10.311 -56.069 79.4783
469 15.5 12 1.4 10.5511 -56.4451 71.4831
470 15.75 12 1.4 10.7916 -60.5088 114.469
471 16 12 1.4 11.0325 -67.4666 -109.876
472 16.25 12 1.4 11.2738 -55.2079 127.752
473 16.5 12 1.4 11.5155 -53.5569 130.607
474 16.75 12 1.4 11.7575 -59.6765 93.7617
475 17 12 1.4 11.9999 -58.3032 109.43
476 17.25 12 1.4 12.2425 -60.7442 99.1559
477 17.5 12 1.4 12.4855 -69.3443 110.93
478 17.75 12 1.4 12.7287 -57.8498 104.163
479 18 12 1.4 12.9722 -58.6252 121.657
480 18.25 12 1.4 13.2159 -53.9584 158.959
481 18.5 12 1.4 13.4599 -55.7607 115.927
482 18.75 12 1.4 13.704 -57.3862 -173.159
483 19 12 1.4 13.9484 -57.4102 158.385
484 19.25 12 1.4 14.193 -71.4838 56.8447
485 19.5 12 1.4 14.4378 -58.9139 -173.263
486 19.75 12 1.4 14.6827 -58.9866 101.692
487 20 12 1.4 14.9278 -64.0286 130.706
488 20.25 12 1.4 15.1731 -64.1098 123.59
489 20.5 12 1.4 15.4185 -64.4181 111.287
490 20.75 12 1.4 15.6641 -64.058 106.059
491 21 12 1.4 15.9098 -63.1052 86.6995
492 21.25 12 1.4 16.1556 -62.7513 95.4829
493 21.5 12 1.4 16.4016 -67.0207 91.3836
494 21.75 12 1.4 16.6477 -64.3832 52.475
495 22 12 1.4 16.8938 -61.4596 52.8994
496 22.25 12 1.4 17.1402 -63.1991 58.123
497 22.5 12 1.4 17.3866 -68.9313 18.7485
498 22.75 12 1.4 17.6331 -60.846 -3.72372
499 23 12 1.4 17.8797 -60.172 -0.485215
500 23.25 12 1.4 18.1264 -63.1828 15.5477
501 23.5 12 1.4 18.3732 -62.7526 5.8194
502 23.75 12 1.4 18.6201 -61.4897 -20.6341
503 24 12 1.4 18.867 -60.5985 -16.7363
504 24.25 12 1.4 19.1141 -60.6914 -26.2125
505 -7 12.25 1.4 12.6434 -55.7341 45.2363
506 -6.75 12.25 1.4 12.3991 -58.0091 82.2868
507 -6.5 12.25 1.4 12.1551 -59.9488 98.8219
508 -6.25 12.25 1.4 11.9113 -61.6287 25.5202
509 -6 12.25 1.4 11.6677 -52.5797 48.6889
510 -5.75 12.25 1.4 11.4245 -52.6915 51.8718
511 -5.5 12.25 1.4 11.1815 -57.0569 42.7824
512 -5.25 12.25 1.4 10.9389 -62.4496 66.3433
513 -5 12.25 1.4 10.6966 -59.9293 99.2789
514 -4.75 12.25 1.4 10.4547 -62.9984 65.6527
515 -4.5 12.25 1.4 10.2131 -63.1976 59.5069
516 -4.25 12.25 1.4 9.97199 -53.6531 44.4713
517 -4 12.25 1.4 9.7313 -54.943 7.1332
518 -3.75 12.25 1.4 9.49111 -53.3838 15.3794
519 -3.5 12.25 1.4 9.25142 -54.4436 -4.80771
520 -3.25 12.25 1.4 9.0123 -56.5253 -13.524
521 -3 12.25 1.4 8.77379 -53.6908 -26.8823
522 -2.75 12.25 1.4 8.53594 -52.5312 -39.1239
523 -2.5 12.25 1.4 8.29879 -51.7271 -66.1878
524 -2.25 12.25 1.4 8.06243 -54.4827 -95.1075
525 -2 12.25 1.4 7.82691 -54.3753 -104.339
526 -1.75 12.25 1.4 7.59232 -53.8392 -123.204
527 -1.5 12.25 1.4 7.35874 -51.447 -163.863
528 -1.25 12.25 1.4 7.12628 -54.6805 151.006
529 -1 12.25 1.4 6.89505 -53.6826 124.031
530 -0.75 12.25 1.4 6.66517 -51.8889 93.816
531 -0.5 12.25 1.4 6.43679 -54.6825 -0.84573
532 -0.25 12.25 1.4 6.21007 -52.6618 21.5291
533 -1.77636e-15 12.25 1.4 5.98521 -49.5445 -65.0164
534 0.25 12.25 1.4 5.76243 -54.1481 32.0521
535 0.5 12.25 1.4 5.54196 -51.6911 -107.474
536 0.75 12.25 1.4 5.32411 -56.5261 -172.409
537 1 12.25 1.4 5.1092 -55.4111 132.694
538 1.25 12.25 1.4 4.89762 -51.3528 26.9029
539 1.5 12.25 1.4 4.68982 -56.833 -95.62
540 1.75 12.25 1.4 4.48634 -52.2441 153.579
541 2 12.25 1.4 4.28777 -58.0431 32.21
542 2.25 12.25 1.4 4.09485 -53.2867 -114.122
543 2.5 12.25 1.4 3.9084 -54.8273 90.7406
544 2.75 12.25 1.4 3.72939 -50.4058 -101.354
545 3 12.25 1.4 3.55895 -50.5311 30.3651
546 3.25 12.25 1.4 3.39837 -50.3871 138.786
547 3.5 12.25 1.4 3.2491 -54.5783 -143.41
548 3.75 12.25 1.4 3.11279 -48.8848 -86.9848
549 4 12.25 1.4 2.99119 -46.2454 -116.534
550 4.25 12.25 1.4 2.88618 -48.1151 -167.96
551 4.5 12.25 1.4 2.79961 -55.0407 101.871
552 4.75 12.25 1.4 2.73324 -47.7114 -39.1449
553 5 12.25 1.4 2.68856 -45.1571 79.6366
554 5.25 12.25 1.4 2.66667 -44.7111 138.341
555 5.5 12.25 1.4 2.66813 -43.7648 127.097
556 5.75 12.25 1.4 2.6929 -43.695 -47.2532
557 6 12.25 1.4 2.74034 -47.4188 -177.061
558 6.25 12.25 1.4 2.80932 -46.7499 -43.8138
559 6.5 12.25 1.4 2.89828 -46.2089 61.9878
560 6.75 12.25 1.4 3.00546 -43.6024 101.432
561 7 12.25 1.4 3.12899 -45.1419 93.1175
562 7.25 12.25 1.4 3.26701 -47.7086 52.3635
563 7.5 12.25 1.4 3.41777 -45.9645 -49.7294
564 7.75 12.25 1.4 3.57965 -45.9548 -145.498
565 8 12.25 1.4 3.75123 -49.8696 55.8992
566 8.25 12.25 1.4 3.93122 -47.9145 -117.357
567 8.5 12.25 1.4 4.11853 -48.0313 49.3969
568 8.75 12.25 1.4 4.3122 -48.6416 -153.031
569 9 12.25 1.4 4.51141 -50.6124 -25.0018
570 9.25 12.25 1.4 4.71546 -50.6295 89.3781
571 9.5 12.25 1.4 4.92376 -48.2747 -172.4
572 9.75 12.25 1.4 5.13577 -49.5839 -73.6012
573 10 12.25 1.4 5.35107 -50.2638 14.5495
574 10.25 12.25 1.4 5.56927 -51.102 93.5814
575 10.5 12.25 1.4 5.79003 -50.5513 149.46
576 10.75 12.25 1.4 6.01309 -52.685 -147.658
577 11 12.25 1.4 6.23819 -51.992 -89.3318
578 11.25 12.25 1.4 6.46513 -51.7454 -52.498
579 11.5 12.25 1.4 6.6937 -52.155 3.61941
580 11.75 12.25 1.4 6.92376 -51.0016 45.0457
581 12 12.25 1.4 7.15515 -55.92 80.0008
582 12.25 12.25 1.4 7.38776 -52.5211 108.217
583 12.5 12.25 1.4 7.62147 -53.4691 143.312
584 12.75 12.25 1.4 7.85618 -53.6863 -175.516
585 13 12.25 1.4 8.0918 -60.2274 -174.758
586 13.25 12.25 1.4 8.32827 -55.7337 -166.285
587 13.5 12.25 1.4 8.5655 -53.2054 -166.513
588 13.75 12.25 1.4 8.80344 -49.919 -111.564
589 14 12.25 1.4 9.04204 -50.7031 -70.1754
590 14.25 12.25 1.4 9.28123 -58.7552 -54.0822
591 14.5 12.25 1.4 9.52098 -63.7456 -67.4933
592 14.75 12.25 1.4 9.76124 -55.1614 -53.297
593 15 12.25 1.4 10.002 -53.08 -50.5816
594 15.25 12.25 1.4 10.2432 -54.2099 -45.4989
595 15.5 12.25 1.4 10.4848 -56.6332 -84.1085
596 15.75 12.25 1.4 10.7267 -60.1782 -95.9192
597 16 12.25 1.4 10.9691 -63.8564 -96.13
598 16.25 12.25 1.4 11.2118 -58.7659 -63.6011
599 16.5 12.25 1.4 11.4547 -54.0261 -59.7578
600 16.75 12.25 1.4 11.698 -57.0208 -32.8373
601 17 12.25 1.4 11.9416 -57.8083 -45.788
602 17.25 12.25 1.4 12.1854 -61.4881 -66.3648
603 17.5 12.25 1.4 12.4295 -65.519 -49.8781
604 17.75 12.25 1.4 12.6738 -58.9248 -90.6378
605 18 12.25 1.4 12.9183 -63.6921 -86.8865
606 18.25 12.25 1.4 13.163 -59.6195 -81.5596
607 18.5 12.25 1.4 13.408 -55.3036 -110.168
608 18.75 12.25 1.4 13.6531 -58.917 -86.4343
609 19 12.25 1.4 13.8983 -52.575 -67.1689
610 19.25 12.25 1.4 14.1438 -60.2569 -122.434
611 19.5 12.25 1.4 14.3894 -58.3649 -11.7434
612 19.75 12.25 1.4 14.6351 -64.1944 -65.3056
613 20 12.25 1.4 14.881 -64.4666 -89.0409
614 20.25 12.25 1.4 15.1271 -63.9557 -112.562
615 20.5 12.25 1.4 15.3732 -61.5837 -128.397
616 20.75 12.25 1.4 15.6195 -62.0945 -115.079
617 21 12.25 1.4 15.8659 -63.8907 -151.259
618 21.25 12.25 1.4 16.1124 -60.8452 -159.097
619 21.5 12.25 1.4 16.359 -61.0745 -156.287
620 21.75 12.25 1.4 16.6057 -64.6326 -176.095
621 22 12.25 1.4 16.8525 -62.3179 158.305
622 22.25 12.25 1.4 17.0994 -59.7227 157.716
623 22.5 12.25 1.4 17.3464 -60.1753 163.637
624 22.75 12.25 1.4 17.5935 -61.9487 148.786
625 23 12.25 1.4 17.8406 -68.4126 45.6151
626 23.25 12.25 1.4 18.0879 -64.6052 108.437
627 23.5 12.25 1.4 18.3352 -64.1311 156.733
628 23.75 12.25 1.4 18.5826 -70.5455 -142.453
629 24 12.25 1.4 18.83 -81.038 -175.134
630 24.25 12.25 1.4 19.0775 -75.7246 142.738
631 -7 12.5 1.4 12.5931 -56.5018 -142.786
632 -6.75 12.5 1.4 12.3478 -58.9123 -142.766
633 -6.5 12.5 1.4 12.1027 -71.982 83.715
634 -6.25 12.5 1.4 11.8578 -52.5259 -172.263
635 -6 12.5 1.4 11.6132 -52.8586 -150.76
636 -5.75 12.5 1.4 11.3688 -60.0465 -140.606
637 -5.5 12.5 1.4 11.1246 -58.9317 -78.3864
638 -5.25 12.5 1.4 10.8807 -65.8244 -146.923
639 -5 12.5 1.4 10.6371 -57.2996 -116.131
640 -4.75 12.5 1.4 10.3938 -55.4422 -130.181
641 -4.5 12.5 1.4 10.1508 -57.3644 -178.601
642 -4.25 12.5 1.4 9.90812 -54.8408 -157.754
643 -4 12.5 1.4 9.66585 -60.7036 -175.051
644 -3.75 12.5 1.4 9.42398 -53.9204 -148.471
645 -3.5 12.5 1.4 9.18255 -58.445 -158.883
646 -3.25 12.5 1.4 8.94158 -55.5743 -160.222
647 -3 12.5 1.4 8.70113 -54.0279 168.601
648 -2.75 12.5 1.4 8.46123 -55.2694 175.075
649 -2.5 12.5 1.4 8.22194 -53.2066 157.651
650 -2.25 12.5 1.4 7.9833 -55.4308 139.121
651 -2 12.5 1.4 7.74537 -53.2761 116.414
652 -1.75 12.5 1.4 7.50824 -52.8062 116.152
653 -1.5 12.5 1.4 7.27196 -51.6914 79.971
654 -1.25 12.5 1.4 7.03663 -53.9931 62.8436
655 -1 12.5 1.4 6.80235 -53.998 47.3905
656 -0.75 12.5 1.4 6.56922 -49.7501 -8.98628
657 -0.5 12.5 1.4 6.33739 -57.752 -23.5564
658 -0.25 12.5 1.4 6.10699 -49.9602 -60.1636
659 -1.77636e-15 12.5 1.4 5.87818 -52.601 -121.274
660 0.25 12.5 1.4 5.65118 -51.9728 -139.644
661 0.5 12.5 1.4 5.4262 -50.023 158.572
662 0.75 12.5 1.4 5.2035 -55.7563 -151.162
663 1 12.5 1.4 4.98339 -54.4529 132.906
664 1.25 12.5 1.4 4.76623 -54.048 47.0506
665 1.5 12.5 1.4 4.55244 -57.2082 -48.5287
666 1.75 12.5 1.4 4.34252 -55.5499 -144.751
667 2 12.5 1.4 4.13706 -53.1768 140.261
668 2.25 12.5 1.4 3.93676 -51.8369 -22.6051
669 2.5 12.5 1.4 3.74244 -49.5245 -149.332
670 2.75 12.5 1.4 3.55508 -51.1655 12.5254
671 3 12.5 1.4 3.37586 -48.8842 -162.694
672 3.25 12.5 1.4 3.20612 -51.1847 -17.2927
673 3.5 12.5 1.4 3.04745 -46.4187 86.9025
674 3.75 12.5 1.4 2.90168 -48.8833 153.665
675 4 12.5 1.4 2.77083 -46.2015 -164.77
676 4.25 12.5 1.4 2.65712 -45.8569 168.179
677 4.5 12.5 1.4 2.56283 -49.2946 72.4328
678 4.75 12.5 1.4 2.49015 -46.9333 -58.5612
679 5 12.5 1.4 2.44103 -45.3081 79.4504
680 5.25 12.5 1.4 2.4169 -45.7792 145.356
681 5.5 12.5 1.4 2.41851 -45.2295 125.697
682 5.75 12.5 1.4 2.44581 -43.6623 -42.8698
683 6 12.5 1.4 2.49795 -46.1897 154.987
684 6.25 12.5 1.4 2.57343 -43.4935 -68.6359
685 6.5 12.5 1.4 2.67027 -44.9635 21.7247
686 6.75 12.5 1.4 2.78623 -45.4792 41.6577
687 7 12.5 1.4 2.91905 -43.5071 -0.559591
688 7.25 12.5 1.4 3.06654 -44.2925 -74.132
689 7.5 12.5 1.4 3.22668 -46.3373 -177.844
690 7.75 12.5 1.4 3.39768 -46.4457 19.6442
691 8 12.5 1.4 3.57799 -45.5669 -145.431
692 8.25 12.5 1.4 3.76627 -51.3453 24.8419
693 8.5 12.5 1.4 3.96138 -46.1035 156.349
694 8.75 12.5 1.4 4.16237 -49.6075 -71.957
695 9 12.5 1.4 4.36842 -47.0268 39.7087
696 9.25 12.5 1.4 4.57885 -53.0749 122.394
697 9.5 12.5 1.4 4.79309 -47.7011 -151.993
698 9.75 12.5 1.4 5.01063 -50.3756 -65.2233
699 10 12.5 1.4 5.23108 -48.2948 11.0016
700 10.25 12.5 1.4 5.45408 -52.2297 73.2954
701 10.5 12.5 1.4 5.67933 -52.446 115.733
702 10.75 12.5 1.4 5.90657 -51.2152 162.227
703 11 12.5 1.4 6.13558 -50.2189 -152.465
704 11.25 12.5 1.4 6.36617 -53.8205 -107.151
705 11.5 12.5 1.4 6.59817 -50.6655 -81.4362
706 11.75 12.5 1.4 6.83145 -51.5419 -39.0215
707 12 12.5 1.4 7.06587 -55.1366 -3.24099
708 12.25 12.5 1.4 7.30132 -52.5688 -13.8915
709 12.5 12.5 1.4 7.53771 -53.4992 37.8676
710 12.75 12.5 1.4 7.77495 -53.5571 50.1264
711 13 12.5 1.4 8.01296 -56.2224 32.1096
712 13.25 12.5 1.4 8.25169 -51.54 65.6612
713 13.5 12.5 1.4 8.49106 -55.3889 91.7119
714 13.75 12.5 1.4 8.73103 -56.2701 101.378
715 14 12.5 1.4 8.97155 -63.9634 102.714
716 14.25 12.5 1.4 9.21257 -54.185 60.3689
717 14.5 12.5 1.4 9.45406 -51.5479 99.7005
718 14.75 12.5 1.4 9.69598 -55.9707 156.655
719 15 12.5 1.4 9.9383 -61.7498 -137.116
720 15.25 12.5 1.4 10.181 -56.2828 134.67
721 15.5 12.5 1.4 10.424 -55.0279 113.125
722 15.75 12.5 1.4 10.6674 -56.1498 108.179
723 16 12.5 1.4 10.911 -60.7509 105.609
724 16.25 12.5 1.4 11.155 -69.6968 58.8331
725 16.5 12.5 1.4 11.3992 -59.8995 71.374
726 16.75 12.5 1.4 11.6436 -61.6859 96.0319
727 17 12.5 1.4 11.8883 -55.139 112.409
728 17.25 12.5 1.4 12.1332 -56.1927 101.332
729 17.5 12.5 1.4 12.3783 -57.9702 103.026
730 17.75 12.5 1.4 12.6236 -57.1606 96.5459
731 18 12.5 1.4 12.8691 -67.2428 43.2405
732 18.25 12.5 1.4 13.1147 -59.8711 97.1636
733 18.5 12.5 1.4 13.3605 -56.7754 67.1109
734 18.75 12.5 1.4 13.6065 -58.7856 -3.10494
735 19 12.5 1.4 13.8526 -55.2019 62.1139
736 19.25 12.5 1.4 14.0988 -53.5128 29.4345
737 19.5 12.5 1.4 14.3452 -55.9467 59.5545
738 19.75 12.5 1.4 14.5917 -62.2953 37.5532
739 20 12.5 1.4 14.8383 -65.8377 50.7896
740 20.25 12.5 1.4 15.085 -69.3257 8.39003
741 20.5 12.5 1.4 15.3319 -62.8757 -24.4234
742 20.75 12.5 1.4 15.5788 -60.239 0.662685
743 21 12.5 1.4 15.8258 -61.5088 -30.7181
744 21.25 12.5 1.4 16.0729 -71.9716 -118.856
745 21.5 12.5 1.4 16.3201 -77.8337 -40.0418
746 21.75 12.5 1.4 16.5674 -68.3646 13.4755
747 22 12.5 1.4 16.8148 -67.3939 54.0366
748 22.25 12.5 1.4 17.0623 -70.9176 33.6396
749 22.5 12.5 1.4 17.3098 -77.9898 -7.60635
750 22.75 12.5 1.4 17.5574 -67.0761 -6.36878
751 23 12.5 1.4 17.805 -67.1784 15.6544
752 23.25 12.5 1.4 18.0527 -68.1081 44.4455
753 23.5 12.5 1.4 18.3005 -80.8113 -90.9774
754 23.75 12.5 1.4 18.5484 -73.0374 -70.6049
755 24 12.5 1.4 18.7963 -68.2222 -34.3553
756 24.25 12.5 1.4 19.0442 -74.598 -5.47512
757 -7 12.75 1.4 12.5475 -60.1906 -18.3322
758 -6.75 12.75 1.4 12.3014 -57.8049 -42.0608
759 -6.5 12.75 1.4 12.0553 -54.9504 -51.7057
760 -6.25 12.75 1.4 11.8095 -55.4551 -16.985
761 -6 12.75 1.4 11.5638 -56.6572 73.121
762 -5.75 12.75 1.4 11.3183 -63.6018 -127.75
763 -5.5 12.75 1.4 11.073 -60.8887 -12.5972
764 -5.25 12.75 1.4 10.828 -61.8016 7.2292
765 -5 12.75 1.4 10.5831 -53.6484 -2.66221
766 -4.75 12.75 1.4 10.3385 -58.1905 1.97094
767 -4.5 12.75 1.4 10.0942 -58.173 8.53291
768 -4.25 12.75 1.4 9.85018 -54.4528 27.2599
769 -4 12.75 1.4 9.60645 -57.964 41.5494
770 -3.75 12.75 1.4 9.36305 -53.6879 19.3787
771 -3.5 12.75 1.4 9.12 -66.0845 31.0482
772 -3.25 12.75 1.4 8.87734 -57.4546 25.1341
773 -3 12.75 1.4 8.6351 -55.2839 9.53389
774 -2.75 12.75 1.4 8.39332 -54.1794 8.57252
775 -2.5 12.75 1.4 8.15203 -57.1611 -7.68143
776 -2.25 12.75 1.4 7.91128 -55.4763 5.35046
777 -2 12.75 1.4 7.67112 -53.8171 -23.5146
778 -1.75 12.75 1.4 7.43161 -51.8468 -19.0907
779 -1.5 12.75 1.4 7.19282 -52.2178 -45.9849
780 -1.25 12.75 1.4 6.95481 -53.9142 -59.8671
781 -1 12.75 1.4 6.71768 -49.6384 -56.1462
782 -0.75 12.75 1.4 6.48151 -51.1059 -119.794
783 -0.5 12.75 1.4 6.24642 -51.1582 -93.8396
784 -0.25 12.75 1.4 6.01253 -50.6425 -162.682
785 -1.77636e-15 12.75 1.4 5.78 -52.2765 -169.205
786 0.25 12.75 1.4 5.54897 -53.7336 155.15
787 0.5 12.75 1.4 5.31967 -50.4379 121.794
788 0.75 12.75 1.4 5.09232 -50.0933 49.2593
789 1 12.75 1.4 4.86718 -47.6082 5.58739
790 1.25 12.75 1.4 4.64459 -61.7142 96.8165
791 1.5 12.75 1.4 4.42493 -53.2783 -45.3146
792 1.75 12.75 1.4 4.20866 -55.6703 -64.6346
793 2 12.75 1.4 3.99632 -53.0341 179.581
794 2.25 12.75 1.4 3.78858 -51.2109 68.9089
795 2.5 12.75 1.4 3.58624 -51.2273 -79.5955
796 2.75 12.75 1.4 3.39027 -53.5255 171.462
797 3 12.75 1.4 3.20183 -54.6089 7.96375
798 3.25 12.75 1.4 3.02233 -48.5938 179.706
799 3.5 12.75 1.4 2.85346 -48.899 -29.9261
800 3.75 12.75 1.4 2.69723 -47.7783 60.8906
801 4 12.75 1.4 2.55594 -46.2454 119.984
802 4.25 12.75 1.4 2.4322 -44.8492 120.556
803 4.5 12.75 1.4 2.32881 -48.516 51.0309
804 4.75 12.75 1.4 2.24859 -44.1373 -60.5881
805 5 12.75 1.4 2.19407 -42.4728 84.116
806 5.25 12.75 1.4 2.16719 -44.7142 152.789
807 5.5 12.75 1.4 2.16898 -44.5006 135.756
808 5.75 12.75 1.4 2.19938 -41.9194 -38.0088
809 6 12.75 1.4 2.25722 -43.9745 152.306
810 6.25 12.75 1.4 2.34048 -43.0271 -88.0738
811 6.5 12.75 1.4 2.44655 -45.0944 -54.4271
812 6.75 12.75 1.4 2.57262 -45.0015 -57.4629
813 7 12.75 1.4 2.71591 -46.5289 -104.648
814 7.25 12.75 1.4 2.87384 -47.1984 128.381
815 7.5 12.75 1.4 3.04413 -45.3945 -13.9791
816 7.75 12.75 1.4 3.22483 -46.3663 169.041
817 8 12.75 1.4 3.41428 -47.0266 -32.8438
818 8.25 12.75 1.4 3.6111 -46.0039 129.731
819 8.5 12.75 1.4 3.81416 -47.5592 -149.629
820 8.75 12.75 1.4 4.02251 -47.3 -19.3649
821 9 12.75 1.4 4.23538 -47.6298 67.5566
822 9.25 12.75 1.4 4.4521 -50.3787 164.782
823 9.5 12.75 1.4 4.67215 -51.7017 -167.327
824 9.75 12.75 1.4 4.89507 -47.126 -82.7921
825 10 12.75 1.4 5.1205 -49.9598 -33.944
826 10.25 12.75 1.4 5.34811 -49.6227 38.1415
827 10.5 12.75 1.4 5.57764 -54.6937 43.0275
828 10.75 12.75 1.4 5.80886 -49.3338 76.5127
829 11 12.75 1.4 6.04158 -51.9686 124.208
830 11.25 12.75 1.4 6.27562 -53.6681 166.245
831 11.5 12.75 1.4 6.51085 -51.6778 177.035
832 11.75 12.75 1.4 6.74715 -53.2438 -143.231
833 12 12.75 1.4 6.98439 -56.0407 -135.392
834 12.25 12.75 1.4 7.2225 -52.844 -154.51
835 12.5 12.75 1.4 7.46139 -52.2084 -100.928
836 12.75 12.75 1.4 7.70098 -54.6411 -99.1999
837 13 12.75 1.4 7.94121 -55.3958 -85.4173
838 13.25 12.75 1.4 8.18203 -88.1197 -69.636
839 13.5 12.75 1.4 8.42339 -54.9066 -105.461
840 13.75 12.75 1.4 8.66523 -56.1683 -99.9083
841 14 12.75 1.4 8.90752 -55.1067 -77.2296
842 14.25 12.75 1.4 9.15023 -54.543 -54.7508
843 14.5 12.75 1.4 9.39332 -63.5138 -86.7356
844 14.75 12.75 1.4 9.63677 -55.8273 -138.908
845 15 12.75 1.4 9.88054 -53.6511 -111.76
846 15.25 12.75 1.4 10.1246 -54.1629 -43.572
847 15.5 12.75 1.4 10.369 -59.0717 15.43
848 15.75 12.75 1.4 10.6136 -56.7429 -98.8661
849 16 12.75 1.4 10.8585 -54.3058 -100.852
850 16.25 12.75 1.4 11.1036 -58.7299 -119.382
851 16.5 12.75 1.4 11.3489 -58.5794 -113.998
852 16.75 12.75 1.4 11.5944 -63.4394 -124.816
853 17 12.75 1.4 11.8401 -61.2793 -98.295
854 17.25 12.75 1.4 12.0859 -57.0439 -120.543
855 17.5 12.75 1.4 12.332 -58.9432 -111.923
856 17.75 12.75 1.4 12.5782 -53.5977 -115.246
857 18 12.75 1.4 12.8245 -59.4936 -145.792
858 18.25 12.75 1.4 13.071 -65.1175 -128.158
859 18.5 12.75 1.4 13.3176 -57.7216 -154.123
860 18.75 12.75 1.4 13.5644 -58.3853 153.482
861 19 12.75 1.4 13.8112 -59.7459 -149.359
862 19.25 12.75 1.4 14.0582 -59.2023 177.507
863 19.5 12.75 1.4 14.3052 -56.2749 158.737
864 19.75 12.75 1.4 14.5524 -65.5574 176.61
865 20 12.75 1.4 14.7997 -62.7382 -157.169
866 20.25 12.75 1.4 15.047 -61.3965 -122.157
867 20.5 12.75 1.4 15.2945 -62.4549 -93.1823
868 20.75 12.75 1.4 15.542 -68.2416 69.4663
869 21 12.75 1.4 15.7896 -66.8218 111.04
870 21.25 12.75 1.4 16.0373 -66.3523 147.317
871 21.5 12.75 1.4 16.285 -76.824 158.101
872 21.75 12.75 1.4 16.5329 -69.6245 139.216
873 22 12.75 1.4 16.7807 -67.3745 117.373
874 22.25 12.75 1.4 17.0287 -66.4644 145.094
875 22.5 12.75 1.4 17.2767 -67.1624 166.429
876 22.75 12.75 1.4 17.5247 -74.2043 133.318
877 23 12.75 1.4 17.7728 -72.7548 75.7384
878 23.25 12.75 1.4 18.021 -79.1258 106.841
879 23.5 12.75 1.4 18.2692 -82.849 94.3736
880 23.75 12.75 1.4 18.5175 -82.3859 -72.298
881 24 12.75 1.4 18.7658 -68.868 -20.9188
882 24.25 12.75 1.4 19.0142 -71.8215 4.30119
883 -7 13 1.4 12.5068 -55.2226 62.2027
884 -6.75 13 1.4 12.2598 -55.0042 74.3222
885 -6.5 13 1.4 12.013 -68.1581 127.025
886 -6.25 13 1.4 11.7662 -68.3064 93.8685
887 -6 13 1.4 11.5196 -64.7363 57.3932
888 -5.75 13 1.4 11.2732 -53.8236 102.874
889 -5.5 13 1.4 11.0269 -52.0782 124.341
890 -5.25 13 1.4 10.7808 -59.1808 140.431
891 -5 13 1.4 10.5348 -65.1751 135.559
892 -4.75 13 1.4 10.2891 -66.3353 -172.176
893 -4.5 13 1.4 10.0436 -56.4254 178.26
894 -4.25 13 1.4 9.79828 -59.3279 -171.688
895 -4 13 1.4 9.55323 -62.1155 -27.4865
896 -3.75 13 1.4 9.30843 -55.6892 -165.061
897 -3.5 13 1.4 9.06392 -58.1269 -142.91
898 -3.25 13 1.4 8.81972 -53.147 179.289
899 -3 13 1.4 8.57585 -56.0361 -166.363
900 -2.75 13 1.4 8.33235 -53.6473 -167.135
901 -2.5 13 1.4 8.08924 -54.7126 167.913
902 -2.25 13 1.4 7.84657 -54.7216 -171.37
903 -2 13 1.4 7.60437 -53.4024 176.296
904 -1.75 13 1.4 7.36269 -52.2576 179.261
905 -1.5 13 1.4 7.12158 -54.016 174.633
906 -1.25 13 1.4 6.88111 -57.5514 132.787
907 -1 13 1.4 6.64135 -49.4917 163.664
908 -0.75 13 1.4 6.40237 -54.1079 102.514
909 -0.5 13 1.4 6.16426 -48.8186 141.601
910 -0.25 13 1.4 5.92713 -51.2152 89.6973
911 -1.77636e-15 13 1.4 5.6911 -52.4155 65.3373
912 0.25 13 1.4 5.45632 -52.0735 46.9837
913 0.5 13 1.4 5.22295 -50.2346 34.5972
914 0.75 13 1.4 4.99119 -49.3189 7.76229
915 1 13 1.4 4.76128 -47.6185 -51.9978
916 1.25 13 1.4 4.53349 -53.2309 -98.6127
917 1.5 13 1.4 4.30817 -47.241 -134.488
918 1.75 13 1.4 4.08572 -54.7543 -75.3561
919 2 13 1.4 3.86663 -56.8338 -150.212
920 2.25 13 1.4 3.65153 -49.6588 98.7771
921 2.5 13 1.4 3.44114 -54.717 15.8079
922 2.75 13 1.4 3.23639 -51.4959 -86.5812
923 3 13 1.4 3.03842 -47.69 132.418
924 3.25 13 1.4 2.84864 -48.7149 -42.2858
925 3.5 13 1.4 2.66881 -48.8989 118.245
926 3.75 13 1.4 2.50106 -47.342 -101.918
927 4 13 1.4 2.348 -50.4271 6.71911
928 4.25 13 1.4 2.21266 -45.9475 53.5054
929 4.5 13 1.4 2.09849 -46.7704 1.06058
930 4.75 13 1.4 2.00909 -43.5469 -68.78
931 5 13 1.4 1.94788 -42.3235 89.8511
932 5.25 13 1.4 1.91755 -44.0565 175.355
933 5.5 13 1.4 1.91958 -44.4658 151.453
934 5.75 13 1.4 1.95386 -40.5354 -28.6388
935 6 13 1.4 2.01875 -43.419 138.715
936 6.25 13 1.4 2.11143 -42.9063 -132.559
937 6.5 13 1.4 2.22843 -41.28 -125.923
938 6.75 13 1.4 2.36615 -43.7724 -172.323
939 7 13 1.4 2.5212 -42.7094 81.2962
940 7.25 13 1.4 2.69058 -42.6241 -42.9417
941 7.5 13 1.4 2.87176 -45.8799 137.894
942 7.75 13 1.4 3.06264 -46.9311 -58.2076
943 8 13 1.4 3.26153 -47.2027 66.9742
944 8.25 13 1.4 3.46704 -45.5763 176.226
945 8.5 13 1.4 3.67806 -47.8976 -84.4473
946 8.75 13 1.4 3.8937 -46.6586 -10.0988
947 9 13 1.4 4.11323 -49.2859 60.6778
948 9.25 13 1.4 4.33607 -47.969 140.08
949 9.5 13 1.4 4.56172 -51.3308 151.994
950 9.75 13 1.4 4.78978 -48.1427 -139.138
951 10 13 1.4 5.01994 -50.0624 -79.1576
952 10.25 13 1.4 5.25191 -49.9501 -56.4643
953 10.5 13 1.4 5.48547 -55.2158 -33.5294
954 10.75 13 1.4 5.72041 -50.1549 -16.452
955 11 13 1.4 5.95659 -51.4475 24.3797
956 11.25 13 1.4 6.19384 -50.9196 41.0989
957 11.5 13 1.4 6.43207 -55.2708 31.9551
958 11.75 13 1.4 6.67115 -51.2185 61.2766
959 12 13 1.4 6.91101 -54.332 76.5264
960 12.25 13 1.4 7.15156 -53.7546 70.0953
961 12.5 13 1.4 7.39274 -54.7932 81.6956
962 12.75 13 1.4 7.63449 -55.705 64.3488
963 13 13 1.4 7.87675 -54.6058 105.376
964 13.25 13 1.4 8.11948 -56.9772 87.931
965 13.5 13 1.4 8.36264 -54.1791 70.6913
966 13.75 13 1.4 8.60619 -55.3848 88.5586
967 14 13 1.4 8.8501 -55.8501 98.097
968 14.25 13 1.4 9.09434 -57.6707 77.465
969 14.5 13 1.4 9.33889 -54.7624 87.6043
970 14.75 13 1.4 9.58372 -50.8417 105.215
971 15 13 1.4 9.8288 -65.8612 77.2176
972 15.25 13 1.4 10.0741 -55.1363 15.9042
973 15.5 13 1.4 10.3197 -53.7469 41.6571
974 15.75 13 1.4 10.5655 -56.6983 97.2063
975 16 13 1.4 10.8114 -58.6742 51.1446
976 16.25 13 1.4 11.0575 -59.0569 17.3219
977 16.5 13 1.4 11.3039 -55.0955 25.1621
978 16.75 13 1.4 11.5503 -56.1904 15.1545
979 17 13 1.4 11.7969 -58.8443 20.5659
980 17.25 13 1.4 12.0437 -56.4317 -8.52089
981 17.5 13 1.4 12.2906 -57.6473 -33.4475
982 17.75 13 1.4 12.5376 -55.4373 -6.21584
983 18 13 1.4 12.7847 -64.758 26.8178
984 18.25 13 1.4 13.0319 -70.8896 164.834
985 18.5 13 1.4 13.2793 -61.9837 76.0855
986 18.75 13 1.4 13.5267 -69.3469 -137.805
987 19 13 1.4 13.7742 -74.6888 -89.0202
988 19.25 13 1.4 14.0219 -67.5912 -73.141
989 19.5 13 1.4 14.2696 -66.9608 -28.9131
990 19.75 13 1.4 14.5173 -66.7722 17.07
991 20 13 1.4 14.7652 -61.423 -46.5295
992 20.25 13 1.4 15.0131 -62.0517 -39.0825
993 20.5 13 1.4 15.2611 -62.3966 -5.44444
994 20.75 13 1.4 15.5092 -61.5443 33.4056
995 21 13 1.4 15.7573 -73.3301 -152.138
996 21.25 13 1.4 16.0055 -69.939 -131.709
997 21.5 13 1.4 16.2537 -65.5523 -147.398
998 21.75 13 1.4 16.502 -71.1027 -152.009
999 22 13 1.4 16.7503 -75.1119 -169.816
1000 22.25 13 1.4 16.9987 -65.461 115.664
1001 22.5 13 1.4 17.2471 -66.8457 107.345
1002 22.75 13 1.4 17.4956 -66.208 73.2494
1003 23 13 1.4 17.7441 -63.701 51.6988
1004 23.25 13 1.4 17.9927 -62.0641 44.7734
1005 23.5 13 1.4 18.2413 -75.5786 57.0259
1006 23.75 13 1.4 18.4899 -73.0803 63.1208
1007 24 13 1.4 18.7386 -70.708 36.3528
1008 24.25 13 1.4 18.9873 -69.2908 26.224
1009 -7 13.25 1.4 12.471 -58.7928 137.272
1010 -6.75 13.25 1.4 12.2233 -57.6505 177.715
1011 -6.5 13.25 1.4 11.9757 -63.6465 153.664
1012 -6.25 13.25 1.4 11.7281 -62.9473 -159.325
1013 -6 13.25 1.4 11.4807 -52.4107 -134.993
1014 -5.75 13.25 1.4 11.2334 -53.4147 -122.501
1015 -5.5 13.25 1.4 10.9863 -61.5188 -81.6931
1016 -5.25 13.25 1.4 10.7392 -60.5149 -133.999
1017 -5 13.25 1.4 10.4923 -57.1867 -108.099
1018 -4.75 13.25 1.4 10.2455 -56.364 -89.0356
1019 -4.5 13.25 1.4 9.99894 -58.5043 -84.9946
1020 -4.25 13.25 1.4 9.75252 -62.0389 -88.0599
1021 -4 13.25 1.4 9.50628 -55.7381 -63.6438
1022 -3.75 13.25 1.4 9.26025 -53.9007 -64.9496
1023 -3.5 13.25 1.4 9.01443 -62.3205 -20.7828
1024 -3.25 13.25 1.4 8.76885 -53.4091 -32.5876
1025 -3 13.25 1.4 8.52353 -57.1522 3.89537
1026 -2.75 13.25 1.4 8.27849 -66.4393 117.512
1027 -2.5 13.25 1.4 8.03375 -58.2747 -2.27908
1028 -2.25 13.25 1.4 7.78935 -54.9822 -0.60105
1029 -2 13.25 1.4 7.54531 -54.8802 11.5873
1030 -1.75 13.25 1.4 7.30168 -54.0481 -15.5088
1031 -1.5 13.25 1.4 7.05849 -54.3797 15.5375
1032 -1.25 13.25 1.4 6.81579 -56.9476 -32.6863
1033 -1 13.25 1.4 6.57364 -50.2183 1.51539
1034 -0.75 13.25 1.4 6.33211 -57.3695 -59.7002
1035 -0.5 13.25 1.4 6.09125 -49.8382 -15.8819
1036 -0.25 13.25 1.4 5.85117 -51.8901 -32.5098
1037 -1.77636e-15 13.25 1.4 5.61194 -51.8209 -50.9968
1038 0.25 13.25 1.4 5.3737 -50.7943 -62.5261
1039 0.5 13.25 1.4 5.13658 -49.5891 -102.02
1040 0.75 13.25 1.4 4.90074 -48.5443 -90.4351
1041 1 13.25 1.4 4.66637 -49.2205 -132.132
1042 1.25 13.25 1.4 4.43371 -48.324 -151.078
1043 1.5 13.25 1.4 4.20305 -48.3241 172.278
1044 1.75 13.25 1.4 3.97472 -46.1862 109.322
1045 2 13.25 1.4 3.74915 -53.7904 71.7941
1046 2.25 13.25 1.4 3.52689 -50.6646 97.3722
1047 2.5 13.25 1.4 3.30858 -56.7922 53.8329
1048 2.75 13.25 1.4 3.09508 -46.9912 -32.3765
1049 3 13.25 1.4 2.88743 -50.2922 -170.414
1050 3.25 13.25 1.4 2.68702 -51.9557 72.9014
1051 3.5 13.25 1.4 2.49556 -49.2004 -58.2115
1052 3.75 13.25 1.4 2.3153 -45.833 110.182
1053 4 13.25 1.4 2.14904 -44.457 -140.008
1054 4.25 13.25 1.4 2.00029 -47.1163 -55.0082
1055 4.5 13.25 1.4 1.87322 -43.5085 -45.9766
1056 4.75 13.25 1.4 1.77249 -44.2028 -94.0539
1057 5 13.25 1.4 1.70279 -42.0977 98.5672
1058 5.25 13.25 1.4 1.66802 -43.5071 -155.815
1059 5.5 13.25 1.4 1.67035 -45.5208 179.059
1060 5.75 13.25 1.4 1.70963 -39.7552 -25.3741
1061 6 13.25 1.4 1.78343 -41.8014 108.672
1062 6.25 13.25 1.4 1.8877 -41.8453 162.723
1063 6.5 13.25 1.4 2.01772 -41.005 151.119
1064 6.75 13.25 1.4 2.16886 -42.5633 57.9344
1065 7 13.25 1.4 2.33704 -44.7218 -67.1808
1066 7.25 13.25 1.4 2.51883 -46.117 88.3822
1067 7.5 13.25 1.4 2.71151 -43.4743 -104.992
1068 7.75 13.25 1.4 2.91292 -45.5997 20.9302
1069 8 13.25 1.4 3.12136 -46.8815 119.988
1070 8.25 13.25 1.4 3.33551 -47.03 -147.642
1071 8.5 13.25 1.4 3.55435 -46.4053 -87.0086
1072 8.75 13.25 1.4 3.77706 -48.0458 -14.052
1073 9 13.25 1.4 4.003 -47.5524 24.5664
1074 9.25 13.25 1.4 4.23164 -49.322 67.7145
1075 9.5 13.25 1.4 4.46257 -49.5349 113.984
1076 9.75 13.25 1.4 4.69546 -47.1828 140.588
1077 10 13.25 1.4 4.93002 -49.4743 179.951
1078 10.25 13.25 1.4 5.16603 -51.2275 178.755
1079 10.5 13.25 1.4 5.4033 -49.9201 -137.642
1080 10.75 13.25 1.4 5.64167 -54.1592 -146.156
1081 11 13.25 1.4 5.881 -50.8814 -120.362
1082 11.25 13.25 1.4 6.12119 -52.5626 -121.59
1083 11.5 13.25 1.4 6.36214 -52.8772 -142.403
1084 11.75 13.25 1.4 6.60375 -50.902 -105.077
1085 12 13.25 1.4 6.84597 -54.5469 -107.593
1086 12.25 13.25 1.4 7.08873 -54.9847 -117.593
1087 12.5 13.25 1.4 7.33198 -54.2263 -119.827
1088 12.75 13.25 1.4 7.57566 -54.0346 -108.529
1089 13 13.25 1.4 7.81975 -57.4434 -105.275
1090 13.25 13.25 1.4 8.06419 -56.2998 -122.657
1091 13.5 13.25 1.4 8.30897 -53.2599 -110.017
1092 13.75 13.25 1.4 8.55405 -59.2061 -119.129
1093 14 13.25 1.4 8.79941 -53.5559 -133.328
1094 14.25 13.25 1.4 9.04502 -57.1228 -126.29
1095 14.5 13.25 1.4 9.29086 -62.0301 -153.312
1096 14.75 13.25 1.4 9.53692 -55.9485 -135.552
1097 15 13.25 1.4 9.78318 -55.8708 -134.505
1098 15.25 13.25 1.4 10.0296 -52.9487 -119.911
1099 15.5 13.25 1.4 10.2762 -65.1088 153.25
1100 15.75 13.25 1.4 10.523 -52.3832 133.483
1101 16 13.25 1.4 10.7699 -51.6174 179.262
1102 16.25 13.25 1.4 11.017 -61.1427 135.278
1103 16.5 13.25 1.4 11.2642 -80.3443 -104.314
1104 16.75 13.25 1.4 11.5115 -64.747 -169.611
1105 17 13.25 1.4 11.759 -63.674 -158.894
1106 17.25 13.25 1.4 12.0065 -60.5293 -176.144
1107 17.5 13.25 1.4 12.2541 -81.6886 35.4285
1108 17.75 13.25 1.4 12.5019 -71.4463 32.0782
1109 18 13.25 1.4 12.7497 -61.2242 134.219
1110 18.25 13.25 1.4 12.9976 -66.3896 91.3335
1111 18.5 13.25 1.4 13.2456 -61.0114 -175.591
1112 18.75 13.25 1.4 13.4936 -67.6896 167.995
1113 19 13.25 1.4 13.7417 -72.2128 147.122
1114 19.25 13.25 1.4 13.9899 -75.2727 -15.0861
1115 19.5 13.25 1.4 14.2382 -67.3642 16.2754
1116 19.75 13.25 1.4 14.4865 -67.1674 62.5296
1117 20 13.25 1.4 14.7349 -67.7849 -11.9977
1118 20.25 13.25 1.4 14.9833 -62.8553 -57.7101
1119 20.5 13.25 1.4 15.2318 -61.2203 -72.342
1120 20.75 13.25 1.4 15.4803 -66.8956 -154.069
1121 21 13.25 1.4 15.7289 -60.5005 -151.923
1122 21.25 13.25 1.4 15.9775 -56.2261 -138.857
1123 21.5 13.25 1.4 16.2262 -55.7743 -126.522
1124 21.75 13.25 1.4 16.4749 -62.5257 -145.554
1125 22 13.25 1.4 16.7236 -67.9643 -139.792
1126 22.25 13.25 1.4 16.9724 -69.7845 177.168
1127 22.5 13.25 1.4 17.2212 -67.2171 141.504
1128 22.75 13.25 1.4 17.47 -64.1551 119.474
1129 23 13.25 1.4 17.7189 -62.0932 107.918
1130 23.25 13.25 1.4 17.9678 -60.2798 107.031
1131 23.5 13.25 1.4 18.2168 -60.3233 88.5738
1132 23.75 13.25 1.4 18.4657 -61.9399 79.4503
1133 24 13.25 1.4 18.7147 -63.4459 66.5211
1134 24.25 13.25 1.4 18.9637 -80.3689 46.8339
1135 -7 13.5 1.4 12.4401 -55.6796 -121.936
1136 -6.75 13.5 1.4 12.1918 -62.3429 -138.935
1137 -6.5 13.5 1.4 11.9435 -60.8248 -54.0747
1138 -6.25 13.5 1.4 11.6953 -55.2712 -36.1013
1139 -6 13.5 1.4 11.4472 -59.2737 -15.4569
1140 -5.75 13.5 1.4 11.1991 -68.1279 -72.3092
1141 -5.5 13.5 1.4 10.9512 -59.4254 -68.1249
1142 -5.25 13.5 1.4 10.7033 -54.2576 -13.3588
1143 -5 13.5 1.4 10.4556 -57.1883 16.0316
1144 -4.75 13.5 1.4 10.2079 -61.3887 36.3744
1145 -4.5 13.5 1.4 9.96038 -58.8527 51.6053
1146 -4.25 13.5 1.4 9.71298 -55.4116 49.3584
1147 -4 13.5 1.4 9.46571 -54.2887 65.5178
1148 -3.75 13.5 1.4 9.2186 -56.3148 82.6708
1149 -3.5 13.5 1.4 8.97164 -57.6878 91.4714
1150 -3.25 13.5 1.4 8.72485 -53.3657 85.5106
1151 -3 13.5 1.4 8.47826 -57.5859 109.117
1152 -2.75 13.5 1.4 8.23187 -51.9656 80.7107
1153 -2.5 13.5 1.4 7.9857 -71.7063 -88.3649
1154 -2.25 13.5 1.4 7.73978 -79.5663 30.5504
1155 -2 13.5 1.4 7.49413 -55.7285 128.245
1156 -1.75 13.5 1.4 7.24878 -52.269 107.164
1157 -1.5 13.5 1.4 7.00375 -63.9162 -76.174
1158 -1.25 13.5 1.4 6.75909 -53.0373 141.034
1159 -1 13.5 1.4 6.51484 -52.5506 -172.929
1160 -0.75 13.5 1.4 6.27103 -55.9593 149.161
1161 -0.5 13.5 1.4 6.02774 -49.558 171.108
1162 -0.25 13.5 1.4 5.78502 -52.2144 136.123
1163 -1.77636e-15 13.5 1.4 5.54294 -52.7761 167.034
1164 0.25 13.5 1.4 5.3016 -51.2286 167.286
1165 0.5 13.5 1.4 5.0611 -50.4655 134.853
1166 0.75 13.5 1.4 4.82157 -48.5973 115.431
1167 1 13.5 1.4 4.58316 -53.308 101.2
1168 1.25 13.5 1.4 4.34604 -46.4374 114.626
1169 1.5 13.5 1.4 4.11046 -47.2513 58.7392
1170 1.75 13.5 1.4 3.87668 -46.5988 46.7416
1171 2 13.5 1.4 3.64506 -48.2992 13.8188
1172 2.25 13.5 1.4 3.41602 -47.4037 -22.969
1173 2.5 13.5 1.4 3.19014 -46.6884 -93.368
1174 2.75 13.5 1.4 2.96813 -47.8315 -31.2322
1175 3 13.5 1.4 2.75092 -51.8953 -114.396
1176 3.25 13.5 1.4 2.53975 -50.5887 170.71
1177 3.5 13.5 1.4 2.33626 -45.7966 45.2385
1178 3.75 13.5 1.4 2.14264 -48.6846 -122.034
1179 4 13.5 1.4 1.9618 -47.8393 78.8341
1180 4.25 13.5 1.4 1.79763 -43.7139 -177.337
1181 4.5 13.5 1.4 1.65506 -42.199 -111.998
1182 4.75 13.5 1.4 1.54013 -43.8787 -132.951
1183 5 13.5 1.4 1.45938 -40.8019 97.4207
1184 5.25 13.5 1.4 1.41865 -41.7413 -136.057
1185 5.5 13.5 1.4 1.42139 -44.4999 -154.4
1186 5.75 13.5 1.4 1.46736 -38.6486 -27.3876
1187 6 13.5 1.4 1.55271 -39.4558 67.9414
1188 6.25 13.5 1.4 1.67143 -40.6573 80.7824
1189 6.5 13.5 1.4 1.817 -42.8056 16.6996
1190 6.75 13.5 1.4 1.98349 -41.1948 -120.331
1191 7 13.5 1.4 2.16611 -41.5826 53.7606
1192 7.25 13.5 1.4 2.3611 -43.635 -134.439
1193 7.5 13.5 1.4 2.56566 -44.264 -54.5821
1194 7.75 13.5 1.4 2.77766 -44.8013 73.5162
1195 8 13.5 1.4 2.99552 -45.6517 127.919
1196 8.25 13.5 1.4 3.21806 -47.4549 -153.38
1197 8.5 13.5 1.4 3.44437 -46.3329 -139.273
1198 8.75 13.5 1.4 3.67376 -47.5744 -52.0018
1199 9 13.5 1.4 3.90567 -47.3005 -48.7554
1200 9.25 13.5 1.4 4.13969 -49.2137 -28.4302
1201 9.5 13.5 1.4 4.37548 -46.0138 18.6527
1202 9.75 13.5 1.4 4.61277 -51.7781 9.7287
1203 10 13.5 1.4 4.85133 -50.0872 28.354
1204 10.25 13.5 1.4 5.09099 -51.1671 49.3761
1205 10.5 13.5 1.4 5.3316 -70.369 166.303
1206 10.75 13.5 1.4 5.57304 -55.0176 34.0894
1207 11 13.5 1.4 5.8152 -50.8353 37.7447
1208 11.25 13.5 1.4 6.05799 -49.4946 64.3957
1209 11.5 13.5 1.4 6.30135 -56.0151 65.1116
1210 11.75 13.5 1.4 6.54522 -52.751 66.7194
1211 12 13.5 1.4 6.78952 -54.9055 50.0639
1212 12.25 13.5 1.4 7.03423 -54.3851 60.8713
1213 12.5 13.5 1.4 7.2793 -52.2266 30.726
1214 12.75 13.5 1.4 7.52469 -52.2876 55.5016
1215 13 13.5 1.4 7.77038 -55.1111 22.4714
1216 13.25 13.5 1.4 8.01633 -56.7543 28.9419
1217 13.5 13.5 1.4 8.26252 -54.2574 -5.31196
1218 13.75 13.5 1.4 8.50894 -53.5315 8.95425
1219 14 13.5 1.4 8.75556 -56.3803 -5.99712
1220 14.25 13.5 1.4 9.00237 -54.2615 -18.7544
1221 14.5 13.5 1.4 9.24935 -53.8938 -26.4758
1222 14.75 13.5 1.4 9.49648 -69.5075 134.644
1223 15 13.5 1.4 9.74377 -62.009 -143.17
1224 15.25 13.5 1.4 9.99118 -84.3106 104.431
1225 15.5 13.5 1.4 10.2387 -56.6773 7.6316
1226 15.75 13.5 1.4 10.4864 -57.2499 89.9075
1227 16 13.5 1.4 10.7342 -62.3708 -179.608
1228 16.25 13.5 1.4 10.982 -55.6972 -81.3231
1229 16.5 13.5 1.4 11.23 -59.001 -9.64044
1230 16.75 13.5 1.4 11.478 -59.8978 45.8494
1231 17 13.5 1.4 11.7262 -70.9418 177.962
1232 17.25 13.5 1.4 11.9744 -65.2157 -70.6315
1233 17.5 13.5 1.4 12.2227 -65.5486 -97.9802
1234 17.75 13.5 1.4 12.471 -58.3326 157.279
1235 18 13.5 1.4 12.7194 -78.7453 -129.866
1236 18.25 13.5 1.4 12.9679 -62.0844 169.496
1237 18.5 13.5 1.4 13.2165 -71.0028 177.106
1238 18.75 13.5 1.4 13.4651 -76.2827 -163.353
1239 19 13.5 1.4 13.7137 -76.3705 -127.036
1240 19.25 13.5 1.4 13.9624 -78.2884 11.4589
1241 19.5 13.5 1.4 14.2111 -59.1004 68.8319
1242 19.75 13.5 1.4 14.4599 -59.5779 70.2041
1243 20 13.5 1.4 14.7087 -64.6494 65.2349
1244 20.25 13.5 1.4 14.9576 -67.6747 12.9967
1245 20.5 13.5 1.4 15.2065 -61.0582 -14.7527
1246 20.75 13.5 1.4 15.4554 -75.2421 -61.9832
1247 21 13.5 1.4 15.7044 -85.325 -52.0901
1248 21.25 13.5 1.4 15.9534 -63.9203 -73.7462
1249 21.5 13.5 1.4 16.2024 -63.2247 -52.1346
1250 21.75 13.5 1.4 16.4515 -61.9141 -4.74357
1251 22 13.5 1.4 16.7006 -60.9499 24.8772
1252 22.25 13.5 1.4 16.9497 -75.9913 28.9282
1253 22.5 13.5 1.4 17.1988 -60.9611 81.2061
1254 22.75 13.5 1.4 17.448 -62.4701 179.95
1255 23 13.5 1.4 17.6972 -74.0948 -160.067
1256 23.25 13.5 1.4 17.9464 -74.1887 -123.492
1257 23.5 13.5 1.4 18.1956 -75.1026 -130.641
1258 23.75 13.5 1.4 18.4449 -74.9344 -115.59
1259 24 13.5 1.4 18.6941 -72.6474 -53.1605
1260 24.25 13.5 1.4 18.9434 -72.6951 -45.1508
1261 -7 13.75 1.4 12.4142 -82.3345 109.863
1262 -6.75 13.75 1.4 12.1653 -62.2325 139.486
1263 -6.5 13.75 1.4 11.9165 -62.4487 112.118
1264 -6.25 13.75 1.4 11.6677 -66.0799 154.366
1265 -6 13.75 1.4 11.419 -67.9799 -57.7478
1266 -5.75 13.75 1.4 11.1703 -71.4763 45.025
1267 -5.5 13.75 1.4 10.9217 -60.1794 132.63
1268 -5.25 13.75 1.4 10.6731 -62.6266 -165.146
1269 -5 13.75 1.4 10.4247 -59.6573 -73.1318
1270 -4.75 13.75 1.4 10.1763 -58.5368 102.094
1271 -4.5 13.75 1.4 9.92796 -56.1659 118.94
1272 -4.25 13.75 1.4 9.67973 -58.264 137.302
1273 -4 13.75 1.4 9.4316 -59.7406 167.686
1274 -3.75 13.75 1.4 9.18356 -60.921 158.828
1275 -3.5 13.75 1.4 8.93564 -58.0363 -175.635
1276 -3.25 13.75 1.4 8.68783 -54.1578 -152.245
1277 -3 13.75 1.4 8.44015 -60.8304 -145.945
1278 -2.75 13.75 1.4 8.19261 -53.7667 -137.676
1279 -2.5 13.75 1.4 7.94523 -58.8794 -103.966
1280 -2.25 13.75 1.4 7.69802 -57.8737 -108.619
1281 -2 13.75 1.4 7.45099 -55.1462 -112.052
1282 -1.75 13.75 1.4 7.20417 -51.528 -94.6505
1283 -1.5 13.75 1.4 6.95757 -55.3848 -104.039
1284 -1.25 13.75 1.4 6.71123 -50.5191 -69.6828
1285 -1 13.75 1.4 6.46517 -56.5327 -66.8821
1286 -0.75 13.75 1.4 6.21942 -52.0805 -84.2983
1287 -0.5 13.75 1.4 5.97402 -52.1405 -53.6593
1288 -0.25 13.75 1.4 5.72902 -51.6964 -54.9254
1289 -1.77636e-15 13.75 1.4 5.48448 -53.0063 -44.2357
1290 0.25 13.75 1.4 5.24045 -50.4404 -32.376
1291 0.5 13.75 1.4 4.997 -52.5096 -8.09146
1292 0.75 13.75 1.4 4.75424 -49.2842 -38.4195
1293 1 13.75 1.4 4.51227 -52.6736 -50.15
1294 1.25 13.75 1.4 4.27123 -49.9361 -37.2547
1295 1.5 13.75 1.4 4.03127 -47.0267 -48.7596
1296 1.75 13.75 1.4 3.79262 -53.1636 -52.4106
1297 2 13.75 1.4 3.55552 -43.7305 -95.1536
1298 2.25 13.75 1.4 3.32032 -50.8091 -106.174
1299 2.5 13.75 1.4 3.08744 -43.4062 -142.617
1300 2.75 13.75 1.4 2.85746 -49.7824 173.098
1301 3 13.75 1.4 2.63113 -41.7227 125.568
1302 3.25 13.75 1.4 2.40949 -50.8342 -148.134
1303 3.5 13.75 1.4 2.19395 -46.4104 90.9401
1304 3.75 13.75 1.4 1.9865 -48.0688 -0.448329
1305 4 13.75 1.4 1.78996 -42.8871 -145.348
1306 4.25 13.75 1.4 1.60834 -44.5731 34.2343
1307 4.5 13.75 1.4 1.44725 -44.8252 155.501
1308 4.75 13.75 1.4 1.31427 -42.1948 179.029
1309 5 13.75 1.4 1.21864 -39.5868 90.3545
1310 5.25 13.75 1.4 1.16956 -40.3824 -114.467
1311 5.5 13.75 1.4 1.17288 -49.9557 45.8391
1312 5.75 13.75 1.4 1.22818 -37.3797 -39.0694
1313 6 13.75 1.4 1.32898 -37.469 17.3837
1314 6.25 13.75 1.4 1.46594 -38.4531 -27.4563
1315 6.5 13.75 1.4 1.62996 -39.69 -150.254
1316 6.75 13.75 1.4 1.81371 -41.8458 29.3089
1317 7 13.75 1.4 2.01179 -42.2409 154.318
1318 7.25 13.75 1.4 2.22038 -41.5434 -93.9102
1319 7.5 13.75 1.4 2.43678 -46.2077 -24.5039
1320 7.75 13.75 1.4 2.65907 -42.3353 58.5774
1321 8 13.75 1.4 2.8859 -45.8061 70.4605
1322 8.25 13.75 1.4 3.11628 -47.3704 137.265
1323 8.5 13.75 1.4 3.34948 -45.2114 149.025
1324 8.75 13.75 1.4 3.58494 -46.0228 -178.643
1325 9 13.75 1.4 3.82224 -49.0039 -169.347
1326 9.25 13.75 1.4 4.06108 -46.362 -151.337
1327 9.5 13.75 1.4 4.30118 -51.1226 -116.953
1328 9.75 13.75 1.4 4.54234 -51.6815 -158.784
1329 10 13.75 1.4 4.78442 -47.7203 -132.251
1330 10.25 13.75 1.4 5.02727 -51.1114 -123.261
1331 10.5 13.75 1.4 5.27079 -48.7217 -142.647
1332 10.75 13.75 1.4 5.51489 -52.1526 -141.062
1333 11 13.75 1.4 5.7595 -52.0939 -143.347
1334 11.25 13.75 1.4 6.00455 -53.4291 -133.327
1335 11.5 13.75 1.4 6.24999 -53.9203 -155.463
1336 11.75 13.75 1.4 6.49578 -52.9027 -174.496
1337 12 13.75 1.4 6.74188 -54.2518 -158.865
1338 12.25 13.75 1.4 6.98825 -56.3475 -162.847
1339 12.5 13.75 1.4 7.23488 -56.3912 164.308
1340 12.75 13.75 1.4 7.48173 -57.3006 172.072
1341 13 13.75 1.4 7.72878 -61.8797 -140.038
1342 13.25 13.75 1.4 7.97601 -62.7859 -73.3379
1343 13.5 13.75 1.4 8.22342 -77.1357 166.36
1344 13.75 13.75 1.4 8.47097 -63.0081 179.405
1345 14 13.75 1.4 8.71867 -68.0894 -99.752
1346 14.25 13.75 1.4 8.96649 -60.471 -155.416
1347 14.5 13.75 1.4 9.21443 -65.1494 -155.042
1348 14.75 13.75 1.4 9.46248 -59.1628 133.112
1349 15 13.75 1.4 9.71063 -58.94 121.6
1350 15.25 13.75 1.4 9.95887 -75.7752 43.4897
1351 15.5 13.75 1.4 10.2072 -67.9912 39.5845
1352 15.75 13.75 1.4 10.4556 -59.7917 18.2583
1353 16 13.75 1.4 10.7041 -71.6842 101.363
1354 16.25 13.75 1.4 10.9526 -56.872 -75.9422
1355 16.5 13.75 1.4 11.2012 -52.4228 -43.4963
1356 16.75 13.75 1.4 11.4499 -62.0764 8.39416
1357 17 13.75 1.4 11.6987 -64.4219 -155.28
1358 17.25 13.75 1.4 11.9474 -53.5582 -110.471
1359 17.5 13.75 1.4 12.1963 -58.8954 -83.7373
1360 17.75 13.75 1.4 12.4452 -63.5153 -104.272
1361 18 13.75 1.4 12.6941 -58.6388 -164.338
1362 18.25 13.75 1.4 12.943 -59.5488 -157.665
1363 18.5 13.75 1.4 13.192 -60.3549 -173.012
1364 18.75 13.75 1.4 13.4411 -61.8709 166.024
1365 19 13.75 1.4 13.6902 -65.2986 141.807
1366 19.25 13.75 1.4 13.9393 -64.4863 110.123
1367 19.5 13.75 1.4 14.1884 -62.3429 103.786
1368 19.75 13.75 1.4 14.4376 -62.1926 115.518
1369 20 13.75 1.4 14.6868 -60.2467 120.817
1370 20.25 13.75 1.4 14.936 -69.6455 15.9481
1371 20.5 13.75 1.4 15.1853 -64.6332 1.26167
1372 20.75 13.75 1.4 15.4345 -62.1276 8.56575
1373 21 13.75 1.4 15.6838 -63.1352 10.7069
1374 21.25 13.75 1.4 15.9332 -65.2442 3.93786
1375 21.5 13.75 1.4 16.1825 -69.7261 -12.6927
1376 21.75 13.75 1.4 16.4319 -64.2525 55.1437
1377 22 13.75 1.4 16.6812 -65.2225 93.7978
1378 22.25 13.75 1.4 16.9306 -61.7618 167.319
1379 22.5 13.75 1.4 17.1801 -58.1694 -170.746
1380 22.75 13.75 1.4 17.4295 -57.2775 -150.72
1381 23 13.75 1.4 17.6789 -61.3767 -118.979
1382 23.25 13.75 1.4 17.9284 -61.6423 -86.2714
1383 23.5 13.75 1.4 18.1779 -67.8986 3.50417
1384 23.75 13.75 1.4 18.4274 -68.0006 21.7741
1385 24 13.75 1.4 18.6769 -65.6854 56.3331
1386 24.25 13.75 1.4 18.9264 -64.7263 72.6636
1387 -7 14 1.4 12.3932 -72.3208 169.641
1388 -6.75 14 1.4 12.1439 -75.1921 -15.7854
1389 -6.5 14 1.4 11.8946 -70.429 58.8709
1390 -6.25 14 1.4 11.6454 -63.2969 34.8873
1391 -6 14 1.4 11.3962 -70.6043 -169.202
1392 -5.75 14 1.4 11.147 -63.4732 -111.321
1393 -5.5 14 1.4 10.8979 -61.7385 -19.866
1394 -5.25 14 1.4 10.6488 -60.9446 57.45
1395 -5 14 1.4 10.3997 -63.1668 165.513
1396 -4.75 14 1.4 10.1507 -60.1788 -133.749
1397 -4.5 14 1.4 9.90175 -66.6328 -0.189919
1398 -4.25 14 1.4 9.65285 -74.2502 15.242
1399 -4 14 1.4 9.404 -70.0907 -159.777
1400 -3.75 14 1.4 9.15522 -67.0172 -86.5177
1401 -3.5 14 1.4 8.90651 -67.8308 -90.7589
1402 -3.25 14 1.4 8.65787 -81.0217 77.8727
1403 -3 14 1.4 8.40931 -67.128 -122.522
1404 -2.75 14 1.4 8.16083 -55.887 -62.2512
1405 -2.5 14 1.4 7.91246 -54.7047 -47.0489
1406 -2.25 14 1.4 7.66419 -55.5335 -21.1274
1407 -2 14 1.4 7.41603 -51.2198 -17.8958
1408 -1.75 14 1.4 7.16801 -66.5963 34.3336
1409 -1.5 14 1.4 6.92012 -73.4629 -102.378
1410 -1.25 14 1.4 6.6724 -61.1188 111.806
1411 -1 14 1.4 6.42485 -56.8126 1.89982
1412 -0.75 14 1.4 6.17749 -52.6454 62.3976
1413 -0.5 14 1.4 5.93036 -52.1402 70.95
1414 -0.25 14 1.4 5.68348 -53.5315 49.3502
1415 -1.77636e-15 14 1.4 5.43689 -72.9704 123.718
1416 0.25 14 1.4 5.19062 -74.6954 56.8716
1417 0.5 14 1.4 4.94473 -71.9263 141.387
1418 0.75 14 1.4 4.69927 -63.1008 -40.5705
1419 1 14 1.4 4.45431 -51.8812 152.407
1420 1.25 14 1.4 4.20995 -47.68 118.813
1421 1.5 14 1.4 3.96629 -51.1624 110.031
1422 1.75 14 1.4 3.72347 -49.0834 117.263
1423 2 14 1.4 3.48167 -47.9854 143.763
1424 2.25 14 1.4 3.24111 -47.9694 101.513
1425 2.5 14 1.4 3.0021 -45.5662 119.786
1426 2.75 14 1.4 2.76502 -46.0777 74.0341
1427 3 14 1.4 2.53044 -42.7977 69.5558
1428 3.25 14 1.4 2.29911 -43.1611 29.8002
1429 3.5 14 1.4 2.07212 -42.2626 -10.3408
1430 3.75 14 1.4 1.85107 -46.3374 42.8142
1431 4 14 1.4 1.63837 -44.3293 -76.9775
1432 4.25 14 1.4 1.43772 -43.6843 168.207
1433 4.5 14 1.4 1.25491 -40.392 -18.878
1434 4.75 14 1.4 1.0989 -40.5285 93.7699
1435 5 14 1.4 0.982532 -38.0559 71.8685
1436 5.25 14 1.4 0.92095 -37.7163 -102.033
1437 5.5 14 1.4 0.925164 -35.3759 121.608
1438 5.75 14 1.4 0.994338 -35.9957 -67.2343
1439 6 14 1.4 1.11646 -36.9668 -66.564
1440 6.25 14 1.4 1.27643 -38.6914 178.607
1441 6.5 14 1.4 1.46186 -39.26 -23.3057
1442 6.75 14 1.4 1.66428 -40.8395 108.109
1443 7 14 1.4 1.87819 -43.1118 -174.058
1444 7.25 14 1.4 2.10009 -41.7407 -94.6233
1445 7.5 14 1.4 2.3277 -43.237 -67.715
1446 7.75 14 1.4 2.55948 -45.7307 -21.0316
1447 8 14 1.4 2.79441 -63.967 -22.5146
1448 8.25 14 1.4 3.03175 -61.2661 -27.2957
1449 8.5 14 1.4 3.27098 -47.4274 58.6212
1450 8.75 14 1.4 3.5117 -47.3708 32.4053
1451 9 14 1.4 3.75364 -49.0877 40.1442
1452 9.25 14 1.4 3.99658 -53.0355 49.2989
1453 9.5 14 1.4 4.24033 -46.8105 19.5763
1454 9.75 14 1.4 4.48477 -51.5702 52.9954
1455 10 14 1.4 4.72979 -52.6199 -3.28551
1456 10.25 14 1.4 4.97531 -48.8555 16.7418
1457 10.5 14 1.4 5.22126 -50.9888 1.43634
1458 10.75 14 1.4 5.46757 -56.7352 0.748579
1459 11 14 1.4 5.7142 -52.7276 -37.8149
1460 11.25 14 1.4 5.96111 -51.4904 -18.1807
1461 11.5 14 1.4 6.20827 -67.7144 -15.3843
1462 11.75 14 1.4 6.45565 -68.562 138.894
1463 12 14 1.4 6.70322 -75.3053 -60.4523
1464 12.25 14 1.4 6.95097 -68.0369 -128.256
1465 12.5 14 1.4 7.19887 -72.6189 -21.2418
1466 12.75 14 1.4 7.44691 -72.6707 -159.7
1467 13 14 1.4 7.69508 -74.5773 -67.4796
1468 13.25 14 1.4 7.94337 -70.2346 -167.874
1469 13.5 14 1.4 8.19176 -70.7529 29.2252
1470 13.75 14 1.4 8.44024 -65.543 -159.005
1471 14 14 1.4 8.68881 -65.9653 -120.683
1472 14.25 14 1.4 8.93746 -76.7093 42.9521
1473 14.5 14 1.4 9.18618 -67.2806 127.475
1474 14.75 14 1.4 9.43498 -65.4581 22.632
1475 15 14 1.4 9.68383 -66.3967 -54.5465
1476 15.25 14 1.4 9.93274 -65.7845 -77.6636
1477 15.5 14 1.4 10.1817 -65.0079 -47.0742
1478 15.75 14 1.4 10.4307 -86.5783 103.684
1479 16 14 1.4 10.6798 -77.7976 142.439
1480 16.25 14 1.4 10.9289 -58.5003 -127.473
1481 16.5 14 1.4 11.178 -60.358 -39.8554
1482 16.75 14 1.4 11.4272 -57.9891 46.7734
1483 17 14 1.4 11.6764 -59.6065 160.767
1484 17.25 14 1.4 11.9257 -59.2501 -155.886
1485 17.5 14 1.4 12.1749 -60.6389 -61.4935
1486 17.75 14 1.4 12.4243 -59.1118 18.6065
1487 18 14 1.4 12.6736 -70.1433 163.734
1488 18.25 14 1.4 12.923 -78.8929 -71.322
1489 18.5 14 1.4 13.1723 -87.5855 -142.479
1490 18.75 14 1.4 13.4217 -86.8491 -99.7367
1491 19 14 1.4 13.6712 -65.7393 -164.736
1492 19.25 14 1.4 13.9206 -72.1217 55.2109
1493 19.5 14 1.4 14.1701 -76.8672 99.6101
1494 19.75 14 1.4 14.4196 -71.0925 -172.643
1495 20 14 1.4 14.6691 -71.8925 -124.786
1496 20.25 14 1.4 14.9186 -69.836 -54.6105
1497 20.5 14 1.4 15.1681 -72.0979 -15.4966
1498 20.75 14 1.4 15.4177 -74.4538 35.7933
1499 21 14 1.4 15.6673 -74.2552 89.1371
1500 21.25 14 1.4 15.9168 -72.9414 138.853
1501 21.5 14 1.4 16.1664 -75.3015 -172.96
1502 21.75 14 1.4 16.416 -72.3498 -126.77
1503 22 14 1.4 16.6657 -72.9759 -101.915
1504 22.25 14 1.4 16.9153 -76.8512 -58.8252
1505 22.5 14 1.4 17.1649 -60.443 -108.519
1506 22.75 14 1.4 17.4146 -61.8843 -68.5947
1507 23 14 1.4 17.6642 -61.1963 -23.6931
1508 23.25 14 1.4 17.9139 -61.1561 12.4283
1509 23.5 14 1.4 18.1636 -77.5896 -36.2976
1510 23.75 14 1.4 18.4133 -76.6508 -19.4924
1511 24 14 1.4 18.663 -84.6221 -143.203
1512 24.25 14 1.4 18.9127 -69.0757 174.085
1513 -7 14.25 1.4 12.3773 -67.6819 -23.7982
1514 -6.75 14.25 1.4 12.1277 -67.2998 143.733
1515 -6.5 14.25 1.4 11.878 -64.7036 105.165
1516 -6.25 14.25 1.4 11.6284 -66.1862 107.138
1517 -6 14.25 1.4 11.3789 -73.0999 69.1151
1518 -5.75 14.25 1.4 11.1293 -57.9362 132.601
1519 -5.5 14.25 1.4 10.8797 -59.8569 -164.92
1520 -5.25 14.25 1.4 10.6302 -64.452 -107.803
1521 -5 14.25 1.4 10.3807 -70.5454 157.605
1522 -4.75 14.25 1.4 10.1313 -56.8827 170.921
1523 -4.5 14.25 1.4 9.8818 -56.2072 -122.625
1524 -4.25 14.25 1.4 9.63238 -56.194 -92.666
1525 -4 14.25 1.4 9.383 -59.938 -60.2478
1526 -3.75 14.25 1.4 9.13364 -67.9938 -96.4844
1527 -3.5 14.25 1.4 8.88432 -57.4162 -54.9719
1528 -3.25 14.25 1.4 8.63504 -56.6016 -21.5164
1529 -3 14.25 1.4 8.3858 -56.3394 4.75076
1530 -2.75 14.25 1.4 8.13661 -58.7874 5.39538
1531 -2.5 14.25 1.4 7.88748 -65.8534 41.9619
1532 -2.25 14.25 1.4 7.63839 -56.3581 51.9703
1533 -2 14.25 1.4 7.38937 -61.6818 -150.86
1534 -1.75 14.25 1.4 7.14042 -61.7166 26.9152
1535 -1.5 14.25 1.4 6.89154 -58.0346 147.282
1536 -1.25 14.25 1.4 6.64275 -74.1615 -113.397
1537 -1 14.25 1.4 6.39406 -72.8124 -93.1648
1538 -0.75 14.25 1.4 6.14546 -68.1771 -89.0617
1539 -0.5 14.25 1.4 5.89699 -53.5168 158.017
1540 -0.25 14.25 1.4 5.64865 -57.6176 158.675
1541 -1.77636e-15 14.25 1.4 5.40047 -52.2633 -165.847
1542 0.25 14.25 1.4 5.15246 -53.59 -163.376
1543 0.5 14.25 1.4 4.90465 -51.3019 -134.924
1544 0.75 14.25 1.4 4.65708 -50.9443 -124.354
1545 1 14.25 1.4 4.40978 -49.8019 -109.155
1546 1.25 14.25 1.4 4.16281 -50.2136 -107.506
1547 1.5 14.25 1.4 3.91622 -47.0717 -92.8793
1548 1.75 14.25 1.4 3.67009 -47.2376 -51.0956
1549 2 14.25 1.4 3.42452 -46.5237 -115.175
1550 2.25 14.25 1.4 3.17964 -45.432 -48.4653
1551 2.5 14.25 1.4 2.93562 -46.5253 -90.9238
1552 2.75 14.25 1.4 2.6927 -43.227 -55.0087
1553 3 14.25 1.4 2.45121 -48.5088 -57.917
1554 3.25 14.25 1.4 2.21161 -42.9713 -83.2464
1555 3.5 14.25 1.4 1.97458 -42.7278 -93.7235
1556 3.75 14.25 1.4 1.7412 -41.4021 -126.502
1557 4 14.25 1.4 1.51312 -39.3092 -165.197
1558 4.25 14.25 1.4 1.29318 -44.7673 -128.196
1559 4.5 14.25 1.4 1.08632 -41.4392 145.92
1560 4.75 14.25 1.4 0.901598 -39.3463 -42.4526
1561 5 14.25 1.4 0.755419 -35.9805 27.0239
1562 5.25 14.25 1.4 0.673378 -63.3416 -11.5548
1563 5.5 14.25 1.4 0.679129 -32.6485 136.329
1564 5.75 14.25 1.4 0.770711 -33.7367 -129.961
1565 6 14.25 1.4 0.922917 -35.6793 133.156
1566 6.25 14.25 1.4 1.11111 -37.1238 -58.2372
1567 6.5 14.25 1.4 1.31998 -40.1829 36.1969
1568 6.75 14.25 1.4 1.54114 -40.2793 113.511
1569 7 14.25 1.4 1.77 -40.9193 146.016
1570 7.25 14.25 1.4 2.00391 -42.4752 -170.25
1571 7.5 14.25 1.4 2.24131 -40.7253 -164.917
1572 7.75 14.25 1.4 2.48118 -44.8045 -163.247
1573 8 14.25 1.4 2.72287 -45.7626 -138.742
1574 8.25 14.25 1.4 2.96594 -45.2397 -157.818
1575 8.5 14.25 1.4 3.21007 -46.233 179.196
1576 8.75 14.25 1.4 3.45505 -48.2855 -177.528
1577 9 14.25 1.4 3.70069 -47.9366 -175.51
1578 9.25 14.25 1.4 3.94689 -46.0354 162.955
1579 9.5 14.25 1.4 4.19353 -53.7785 177.242
1580 9.75 14.25 1.4 4.44055 -65.1972 -87.8422
1581 10 14.25 1.4 4.68788 -56.0005 -150.306
1582 10.25 14.25 1.4 4.93549 -61.6138 -127.343
1583 10.5 14.25 1.4 5.18332 -61.1828 19.2859
1584 10.75 14.25 1.4 5.43135 -63.3488 119.693
1585 11 14.25 1.4 5.67956 -58.5576 -125.28
1586 11.25 14.25 1.4 5.92791 -54.1833 61.7104
1587 11.5 14.25 1.4 6.1764 -53.5658 42.6269
1588 11.75 14.25 1.4 6.42501 -53.454 40.0811
1589 12 14.25 1.4 6.67372 -56.7301 36.6591
1590 12.25 14.25 1.4 6.92252 -57.4818 27.1431
1591 12.5 14.25 1.4 7.1714 -60.3826 -20.0211
1592 12.75 14.25 1.4 7.42037 -65.9935 96.6171
1593 13 14.25 1.4 7.66939 -59.4179 -87.254
1594 13.25 14.25 1.4 7.91848 -62.4616 -81.4044
1595 13.5 14.25 1.4 8.16763 -56.1002 -126.84
1596 13.75 14.25 1.4 8.41682 -58.0827 -130.654
1597 14 14.25 1.4 8.66607 -56.7072 -155.962
1598 14.25 14.25 1.4 8.91535 -61.6104 -143.766
1599 14.5 14.25 1.4 9.16468 -62.5849 169.171
1600 14.75 14.25 1.4 9.41404 -56.7405 -150.995
1601 15 14.25 1.4 9.66343 -59.6105 171.943
1602 15.25 14.25 1.4 9.91285 -58.2993 160.197
1603 15.5 14.25 1.4 10.1623 -67.0674 -115.642
1604 15.75 14.25 1.4 10.4118 -67.6725 33.5754
1605 16 14.25 1.4 10.6613 -76.0924 -148.397
1606 16.25 14.25 1.4 10.9108 -68.6146 123.727
1607 16.5 14.25 1.4 11.1604 -65.1579 -31.5411
1608 16.75 14.25 1.4 11.4099 -61.4945 17.7208
1609 17 14.25 1.4 11.6595 -58.4386 70.2401
1610 17.25 14.25 1.4 11.9091 -63.1411 -96.0232
1611 17.5 14.25 1.4 12.1587 -57.9953 -62.0096
1612 17.75 14.25 1.4 12.4084 -59.4905 1.66593
1613 18 14.25 1.4 12.658 -63.7079 37.6922
1614 18.25 14.25 1.4 12.9077 -65.7098 -81.2439
1615 18.5 14.25 1.4 13.1573 -64.7695 -73.1943
1616 18.75 14.25 1.4 13.407 -65.855 -89.3403
1617 19 14.25 1.4 13.6567 -66.2747 -115.59
1618 19.25 14.25 1.4 13.9064 -67.6606 -155.765
1619 19.5 14.25 1.4 14.1562 -64.3064 170.971
1620 19.75 14.25 1.4 14.4059 -65.84 160.746
1621 20 14.25 1.4 14.6556 -70.094 158.417
1622 20.25 14.25 1.4 14.9054 -70.5026 84.2334
1623 20.5 14.25 1.4 15.1551 -65.193 77.0233
1624 20.75 14.25 1.4 15.4049 -64.0471 80.6407
1625 21 14.25 1.4 15.6547 -74.1624 138.951
1626 21.25 14.25 1.4 15.9044 -74.5917 -177.401
1627 21.5 14.25 1.4 16.1542 -74.833 -140.972
1628 21.75 14.25 1.4 16.404 -71.9599 -68.616
1629 22 14.25 1.4 16.6538 -69.5183 -47.1723
1630 22.25 14.25 1.4 16.9036 -70.8599 1.53426
1631 22.5 14.25 1.4 17.1534 -67.7523 -20.2999
1632 22.75 14.25 1.4 17.4032 -74.3822 -17.1959
1633 23 14.25 1.4 17.6531 -60.1222 63.1213
1634 23.25 14.25 1.4 17.9029 -60.5744 114.795
1635 23.5 14.25 1.4 18.1527 -57.4027 159.21
1636 23.75 14.25 1.4 18.4026 -58.412 -176.594
1637 24 14.25 1.4 18.6524 -59.8975 -158.677
1638 24.25 14.25 1.4 18.9022 -68.3409 171.991
