#Rx
# X(m), Y(m), Z(m), Distance(m), Power (dBm) Phase (deg)
1 -7 11.25 1.4 4.95602 -49.8381 138.978
2 -6.75 11.25 1.4 4.94937 -49.4497 135.469
3 -6.5 11.25 1.4 4.95533 -50.4209 100.42
4 -6.25 11.25 1.4 4.97387 -48.2848 74.5897
5 -6 11.25 1.4 5.00485 -54.9403 -5.35076
6 -5.75 11.25 1.4 5.04803 -55.8592 -87.8684
7 -5.5 11.25 1.4 5.1031 -54.2472 34.6375
8 -5.25 11.25 1.4 5.1697 -48.8138 -177.023
9 -5 11.25 1.4 5.24736 -50.6192 -42.4598
10 -4.75 11.25 1.4 5.33563 -48.1399 87.8156
11 -4.5 11.25 1.4 5.43397 -48.9392 136.582
12 -4.25 11.25 1.4 5.54185 -50.2857 179.905
13 -4 11.25 1.4 5.65873 -54.6633 178.82
14 -3.75 11.25 1.4 5.78405 -48.9108 -167.444
15 -3.5 11.25 1.4 5.91729 -46.759 168.894
16 -3.25 11.25 1.4 6.05793 -50.1368 98.9466
17 -3 11.25 1.4 6.20545 -52.1321 13.5396
18 -2.75 11.25 1.4 6.35937 -53.9355 -91.2436
19 -2.5 11.25 1.4 6.51926 -52.4487 168.622
20 -2.25 11.25 1.4 6.68467 -54.4686 75.7994
21 -2 11.25 1.4 6.85521 -60.6376 -65.6152
22 -1.75 11.25 1.4 7.0305 -57.2796 67.8174
23 -1.5 11.25 1.4 7.21021 -51.8137 -136.4
24 -1.25 11.25 1.4 7.394 -49.5861 101.31
25 -1 11.25 1.4 7.58157 -53.1071 -91.5843
26 -0.75 11.25 1.4 7.77267 -53.4641 73.8889
27 -0.5 11.25 1.4 7.96702 -56.1502 -136.548
28 -0.25 11.25 1.4 8.16441 -54.0564 -10.3277
29 -1.77636e-15 11.25 1.4 8.36461 -52.0445 128.454
30 0.25 11.25 1.4 8.56742 -53.1677 -104.559
31 0.5 11.25 1.4 8.77267 -51.8192 10.8833
32 0.75 11.25 1.4 8.98019 -55.0374 131.212
33 1 11.25 1.4 9.18983 -56.5085 -126.664
34 1.25 11.25 1.4 9.40144 -55.1572 -29.7399
35 1.5 11.25 1.4 9.61489 -59.478 103.739
36 1.75 11.25 1.4 9.83007 -60.6435 -91.4877
37 2 11.25 1.4 10.0469 -65.3901 -96.1694
38 2.25 11.25 1.4 10.2652 -60.561 -77.2712
39 2.5 11.25 1.4 10.4849 -52.9687 -55.2086
40 2.75 11.25 1.4 10.7059 -54.3267 -3.5791
41 3 11.25 1.4 10.9282 -54.6224 87.4263
42 3.25 11.25 1.4 11.1517 -54.277 128.748
43 3.5 11.25 1.4 11.3762 -51.4395 178.411
44 3.75 11.25 1.4 11.6019 -52.3836 -159.272
45 4 11.25 1.4 11.8284 -53.9086 -64.0749
46 4.25 11.25 1.4 12.056 -52.8779 -37.9571
47 4.5 11.25 1.4 12.2843 -53.0945 38.7968
48 4.75 11.25 1.4 12.5136 -50.9675 59.3695
49 5 11.25 1.4 12.7436 -55.5757 71.9211
50 5.25 11.25 1.4 12.9743 -53.7264 119.995
51 5.5 11.25 1.4 13.2057 -51.0494 179.933
52 5.75 11.25 1.4 13.4378 -63.0412 -154.938
53 6 11.25 1.4 13.6706 -64.9136 -79.4906
54 6.25 11.25 1.4 13.9039 -72.1307 39.2366
55 6.5 11.25 1.4 14.1378 -62.4766 104.401
56 6.75 11.25 1.4 14.3723 -67.0485 111.412
57 7 11.25 1.4 14.6072 -60.9095 173.015
58 7.25 11.25 1.4 14.8427 -64.8045 160.682
59 7.5 11.25 1.4 15.0786 -67.6912 -159.029
60 7.75 11.25 1.4 15.315 -70.0348 172.497
61 8 11.25 1.4 15.5518 -77.7623 -140.493
62 8.25 11.25 1.4 15.789 -63.5173 131.026
63 8.5 11.25 1.4 16.0266 -60.4739 131.174
64 8.75 11.25 1.4 16.2645 -60.1421 136.986
65 9 11.25 1.4 16.5028 -60.5795 108.777
66 9.25 11.25 1.4 16.7415 -65.7987 166.215
67 9.5 11.25 1.4 16.9805 -61.7535 -164.69
68 9.75 11.25 1.4 17.2198 -59.962 -143.371
69 10 11.25 1.4 17.4594 -60.6363 170.722
70 10.25 11.25 1.4 17.6993 -60.1003 -148.133
71 10.5 11.25 1.4 17.9394 -66.4839 -122.704
72 10.75 11.25 1.4 18.1799 -61.1699 -148.496
73 11 11.25 1.4 18.4205 -61.0791 -122.292
74 11.25 11.25 1.4 18.6615 -61.4318 -133.323
75 11.5 11.25 1.4 18.9026 -65.8341 -114.055
76 11.75 11.25 1.4 19.144 -62.0818 -125.181
77 12 11.25 1.4 19.3856 -60.0928 -100.699
78 12.25 11.25 1.4 19.6275 -63.1423 -106.929
79 12.5 11.25 1.4 19.8695 -73.5289 -177.032
80 12.75 11.25 1.4 20.1117 -69.1963 177.515
81 13 11.25 1.4 20.3541 -72.0283 -177.22
82 13.25 11.25 1.4 20.5967 -62.7077 -73.9775
83 13.5 11.25 1.4 20.8394 -60.1922 -97.9843
84 13.75 11.25 1.4 21.0824 -59.9961 -92.2029
85 14 11.25 1.4 21.3255 -60.6656 -85.5356
86 14.25 11.25 1.4 21.5687 -60.4935 -72.7606
87 14.5 11.25 1.4 21.8121 -61.0898 -76.3808
88 14.75 11.25 1.4 22.0557 -61.4239 -69.6534
89 15 11.25 1.4 22.2994 -62.1937 -77.9762
90 15.25 11.25 1.4 22.5432 -62.5852 -79.439
91 15.5 11.25 1.4 22.7872 -62.4942 -80.3837
92 15.75 11.25 1.4 23.0313 -63.208 -77.0788
93 16 11.25 1.4 23.2755 -74.2734 131.753
94 16.25 11.25 1.4 23.5198 -63.523 135.618
95 16.5 11.25 1.4 23.7643 -63.7342 132.747
96 16.75 11.25 1.4 24.0089 -68.0547 56.5802
97 17 11.25 1.4 24.2535 -72.9207 130.252
98 17.25 11.25 1.4 24.4983 -71.8148 148.193
99 17.5 11.25 1.4 24.7432 -72.0406 171.613
100 17.75 11.25 1.4 24.9882 -69.8866 170.088
101 18 11.25 1.4 25.2333 -69.8603 -175.492
102 18.25 11.25 1.4 25.4785 -76.7065 95.5068
103 18.5 11.25 1.4 25.7238 -65.8864 -96.546
104 18.75 11.25 1.4 25.9692 -66.9317 -106.785
105 19 11.25 1.4 26.2146 -67.8268 -121.224
106 19.25 11.25 1.4 26.4602 -65.2445 -125.707
107 19.5 11.25 1.4 26.7058 -67.5559 -168.239
108 19.75 11.25 1.4 26.9515 -63.9163 -143.844
109 20 11.25 1.4 27.1973 -64.5603 -141.892
110 20.25 11.25 1.4 27.4432 -65.1149 -140.021
111 20.5 11.25 1.4 27.6891 -65.7731 -141.384
112 20.75 11.25 1.4 27.9351 -67.3256 -155.647
113 21 11.25 1.4 28.1812 -67.0953 -171.49
114 21.25 11.25 1.4 28.4273 -65.8833 178.168
115 21.5 11.25 1.4 28.6736 -66.1723 -179.13
116 21.75 11.25 1.4 28.9198 -66.5849 174.633
117 22 11.25 1.4 29.1662 -67.2616 172.33
118 22.25 11.25 1.4 29.4126 -68.2394 163.464
119 22.5 11.25 1.4 29.6591 -68.6482 154.89
120 22.75 11.25 1.4 29.9056 -90.4055 15.559
121 23 11.25 1.4 30.1522 -69.4439 114.253
122 23.25 11.25 1.4 30.3988 -68.8468 113.571
123 23.5 11.25 1.4 30.6455 -70.2642 108.199
124 23.75 11.25 1.4 30.8922 -72.3244 91.1865
125 24 11.25 1.4 31.139 -73.1856 69.7933
126 24.25 11.25 1.4 31.3859 -73.0261 67.6469
127 -7 11.5 1.4 4.70637 -48.5515 152.711
128 -6.75 11.5 1.4 4.69937 -48.1673 130.986
129 -6.5 11.5 1.4 4.70565 -50.7963 100.285
130 -6.25 11.5 1.4 4.72517 -46.9038 72.9334
131 -6 11.5 1.4 4.75776 -49.4852 -0.0141315
132 -5.75 11.5 1.4 4.80316 -51.5822 -87.5739
133 -5.5 11.5 1.4 4.86102 -50.3755 35.3411
134 -5.25 11.5 1.4 4.93088 -48.8279 170.749
135 -5 11.5 1.4 5.01225 -52.7444 -54.041
136 -4.75 11.5 1.4 5.10458 -48.1847 40.607
137 -4.5 11.5 1.4 5.20729 -48.3914 80.9413
138 -4.25 11.5 1.4 5.31977 -52.222 134.884
139 -4 11.5 1.4 5.44142 -53.093 135.39
140 -3.75 11.5 1.4 5.57163 -53.4034 104.25
141 -3.5 11.5 1.4 5.70983 -51.428 34.2495
142 -3.25 11.5 1.4 5.85545 -48.9554 -26.0094
143 -3 11.5 1.4 6.00794 -50.1237 -102.057
144 -2.75 11.5 1.4 6.1668 -49.9026 168.567
145 -2.5 11.5 1.4 6.33155 -52.7511 25.1715
146 -2.25 11.5 1.4 6.50174 -51.3133 -123.528
147 -2 11.5 1.4 6.67696 -60.9119 72.2508
148 -1.75 11.5 1.4 6.85681 -53.111 -165.143
149 -1.5 11.5 1.4 7.04095 -50.91 37.5722
150 -1.25 11.5 1.4 7.22904 -49.0502 -143.936
151 -1 11.5 1.4 7.42079 -53.3867 48.8669
152 -0.75 11.5 1.4 7.61592 -58.9246 -172.54
153 -0.5 11.5 1.4 7.81417 -53.6344 -44.5991
154 -0.25 11.5 1.4 8.01532 -55.6566 63.1073
155 -1.77636e-15 11.5 1.4 8.21915 -53.4031 -169.886
156 0.25 11.5 1.4 8.42547 -52.1165 -50.6377
157 0.5 11.5 1.4 8.6341 -54.3232 50.7318
158 0.75 11.5 1.4 8.84487 -52.9343 167.505
159 1 11.5 1.4 9.05764 -52.9915 -104.889
160 1.25 11.5 1.4 9.27226 -54.9012 -27.476
161 1.5 11.5 1.4 9.48862 -58.3931 71.7387
162 1.75 11.5 1.4 9.7066 -57.2163 -155.367
163 2 11.5 1.4 9.92608 -57.1637 -158.098
164 2.25 11.5 1.4 10.147 -58.3181 -130.925
165 2.5 11.5 1.4 10.3692 -57.8068 -134.629
166 2.75 11.5 1.4 10.5927 -56.3589 -23.711
167 3 11.5 1.4 10.8173 -55.1144 34.3615
168 3.25 11.5 1.4 11.043 -55.1341 92.8624
169 3.5 11.5 1.4 11.2697 -52.5752 125.838
170 3.75 11.5 1.4 11.4974 -60.5728 -165.558
171 4 11.5 1.4 11.726 -53.0254 -120.947
172 4.25 11.5 1.4 11.9555 -61.9841 -51.3019
173 4.5 11.5 1.4 12.1858 -54.3417 -27.5189
174 4.75 11.5 1.4 12.4168 -57.3446 -36.3384
175 5 11.5 1.4 12.6486 -57.6299 -167.259
176 5.25 11.5 1.4 12.881 -63.7611 174.7
177 5.5 11.5 1.4 13.1141 -62.9395 -54.5208
178 5.75 11.5 1.4 13.3478 -52.6516 -82.1485
179 6 11.5 1.4 13.5821 -53.216 -57.1053
180 6.25 11.5 1.4 13.8169 -53.8303 -15.5168
181 6.5 11.5 1.4 14.0523 -56.9789 2.85987
182 6.75 11.5 1.4 14.2881 -66.4463 82.5852
183 7 11.5 1.4 14.5244 -68.9525 41.9926
184 7.25 11.5 1.4 14.7612 -83.4012 -143.073
185 7.5 11.5 1.4 14.9984 -60.1939 -77.1956
186 7.75 11.5 1.4 15.236 -60.0346 -61.5626
187 8 11.5 1.4 15.474 -63.7155 -32.3955
188 8.25 11.5 1.4 15.7124 -62.4601 -14.8031
189 8.5 11.5 1.4 15.9511 -60.4194 -31.2867
190 8.75 11.5 1.4 16.1902 -62.5999 -13.9346
191 9 11.5 1.4 16.4296 -74.4725 43.0455
192 9.25 11.5 1.4 16.6693 -61.8323 51.5736
193 9.5 11.5 1.4 16.9093 -59.8906 25.2686
194 9.75 11.5 1.4 17.1496 -58.1758 17.3791
195 10 11.5 1.4 17.3902 -70.6934 28.4749
196 10.25 11.5 1.4 17.631 -61.5054 19.7828
197 10.5 11.5 1.4 17.8721 -71.152 76.6826
198 10.75 11.5 1.4 18.1134 -76.5821 -170.256
199 11 11.5 1.4 18.355 -63.1207 90.6338
200 11.25 11.5 1.4 18.5967 -61.23 54.9918
201 11.5 11.5 1.4 18.8387 -69.7985 -151.974
202 11.75 11.5 1.4 19.0809 -64.6504 65.5132
203 12 11.5 1.4 19.3233 -61.8167 54.8317
204 12.25 11.5 1.4 19.5659 -59.5637 48.1806
205 12.5 11.5 1.4 19.8087 -61.1547 71.096
206 12.75 11.5 1.4 20.0516 -61.9248 53.5443
207 13 11.5 1.4 20.2948 -61.0542 68.5644
208 13.25 11.5 1.4 20.538 -68.5236 52.6961
209 13.5 11.5 1.4 20.7815 -60.088 91.5632
210 13.75 11.5 1.4 21.0251 -59.4183 94.7328
211 14 11.5 1.4 21.2688 -61.4153 82.2292
212 14.25 11.5 1.4 21.5127 -62.7042 102.8
213 14.5 11.5 1.4 21.7568 -61.5059 121.738
214 14.75 11.5 1.4 22.0009 -68.8131 -155.705
215 15 11.5 1.4 22.2452 -68.9988 -160.672
216 15.25 11.5 1.4 22.4896 -69.0315 -137.495
217 15.5 11.5 1.4 22.7342 -69.7289 -138.623
218 15.75 11.5 1.4 22.9788 -71.123 -150.626
219 16 11.5 1.4 23.2236 -71.4646 -138.07
220 16.25 11.5 1.4 23.4685 -75.0147 -174.908
221 16.5 11.5 1.4 23.7135 -75.3491 -99.6986
222 16.75 11.5 1.4 23.9586 -76.0262 -95.998
223 17 11.5 1.4 24.2038 -74.4487 21.1726
224 17.25 11.5 1.4 24.4491 -66.4396 43.5412
225 17.5 11.5 1.4 24.6944 -66.8761 36.4272
226 17.75 11.5 1.4 24.9399 -66.4905 25.08
227 18 11.5 1.4 25.1855 -68.1478 48.4731
228 18.25 11.5 1.4 25.4311 -68.3598 21.9618
229 18.5 11.5 1.4 25.6769 -67.3243 6.8936
230 18.75 11.5 1.4 25.9227 -66.4089 13.2574
231 19 11.5 1.4 26.1686 -64.1233 5.47075
232 19.25 11.5 1.4 26.4146 -64.4315 7.0957
233 19.5 11.5 1.4 26.6606 -65.3524 8.39773
234 19.75 11.5 1.4 26.9067 -67.2391 -2.67905
235 20 11.5 1.4 27.1529 -67.4332 -17.8232
236 20.25 11.5 1.4 27.3992 -78.5823 49.8548
237 20.5 11.5 1.4 27.6455 -87.9284 -25.7118
238 20.75 11.5 1.4 27.8919 -74.9166 -6.29427
239 21 11.5 1.4 28.1384 -76.9156 56.5729
240 21.25 11.5 1.4 28.3849 -82.4185 155.083
241 21.5 11.5 1.4 28.6315 -68.1362 -78.0601
242 21.75 11.5 1.4 28.8781 -68.2688 -89.3207
243 22 11.5 1.4 29.1248 -72.3421 -99.9336
244 22.25 11.5 1.4 29.3716 -73.0631 -107.084
245 22.5 11.5 1.4 29.6184 -73.2064 -113.908
246 22.75 11.5 1.4 29.8652 -74.8281 -115.968
247 23 11.5 1.4 30.1121 -71.4903 -131.106
248 23.25 11.5 1.4 30.3591 -70.8696 -139.345
249 23.5 11.5 1.4 30.6061 -71.8908 -169.195
250 23.75 11.5 1.4 30.8532 -71.8634 -164.92
251 24 11.5 1.4 31.1003 -71.4891 -178.233
252 24.25 11.5 1.4 31.3474 -72.2738 171.92
253 -7 11.75 1.4 4.45677 -49.9518 -168.384
254 -6.75 11.75 1.4 4.44937 -49.7337 -168.149
255 -6.5 11.75 1.4 4.456 -52.1135 172.902
256 -6.25 11.75 1.4 4.47661 -47.0037 91.2475
257 -6 11.75 1.4 4.511 -52.1817 46.1714
258 -5.75 11.75 1.4 4.55886 -51.2735 -57.1455
259 -5.5 11.75 1.4 4.61977 -50.3257 -3.99241
260 -5.25 11.75 1.4 4.69323 -47.1949 123.756
261 -5 11.75 1.4 4.77865 -46.4248 -83.9464
262 -4.75 11.75 1.4 4.8754 -46.681 1.9534
263 -4.5 11.75 1.4 4.98284 -50.334 34.2589
264 -4.25 11.75 1.4 5.10027 -55.3195 43.6634
265 -4 11.75 1.4 5.22703 -47.2823 34.835
266 -3.75 11.75 1.4 5.36246 -47.75 -4.43195
267 -3.5 11.75 1.4 5.50591 -52.3365 -70.7123
268 -3.25 11.75 1.4 5.65677 -56.3061 161.899
269 -3 11.75 1.4 5.81448 -49.9499 84.9785
270 -2.75 11.75 1.4 5.97848 -51.2508 -18.8359
271 -2.5 11.75 1.4 6.14828 -51.3024 -160.534
272 -2.25 11.75 1.4 6.32341 -53.4678 41.696
273 -2 11.75 1.4 6.50343 -51.0767 -145.038
274 -1.75 11.75 1.4 6.68795 -53.8793 2.52556
275 -1.5 11.75 1.4 6.87661 -49.1237 -170.465
276 -1.25 11.75 1.4 7.06907 -50.2913 15.3254
277 -1 11.75 1.4 7.26505 -53.6969 176.682
278 -0.75 11.75 1.4 7.46425 -53.3305 -92.722
279 -0.5 11.75 1.4 7.66643 -51.9635 22.3019
280 -0.25 11.75 1.4 7.87135 -50.8267 154.549
281 -1.77636e-15 11.75 1.4 8.07882 -54.4916 -98.2624
282 0.25 11.75 1.4 8.28863 -54.1939 12.3564
283 0.5 11.75 1.4 8.50061 -55.5645 109.972
284 0.75 11.75 1.4 8.71462 -54.8459 163.551
285 1 11.75 1.4 8.93049 -55.1004 -122.05
286 1.25 11.75 1.4 9.1481 -59.9175 -43.9564
287 1.5 11.75 1.4 9.36733 -52.1796 32.6507
288 1.75 11.75 1.4 9.58806 -51.6722 97.7403
289 2 11.75 1.4 9.8102 -53.0596 127.201
290 2.25 11.75 1.4 10.0336 -61.3399 166.834
291 2.5 11.75 1.4 10.2583 -57.2099 172.527
292 2.75 11.75 1.4 10.4841 -55.6956 -98.4863
293 3 11.75 1.4 10.711 -52.4249 -34.1007
294 3.25 11.75 1.4 10.9389 -53.1845 44.4545
295 3.5 11.75 1.4 11.1678 -57.8521 31.5001
296 3.75 11.75 1.4 11.3975 -57.3963 132.626
297 4 11.75 1.4 11.6281 -58.1955 95.6599
298 4.25 11.75 1.4 11.8595 -64.7628 -132.088
299 4.5 11.75 1.4 12.0916 -67.6535 92.9914
300 4.75 11.75 1.4 12.3244 -57.5065 112.022
301 5 11.75 1.4 12.5578 -62.685 115.246
302 5.25 11.75 1.4 12.7919 -67.2707 -165.62
303 5.5 11.75 1.4 13.0266 -62.9154 126.116
304 5.75 11.75 1.4 13.2618 -61.8048 116.136
305 6 11.75 1.4 13.4976 -64.7458 121.381
306 6.25 11.75 1.4 13.7339 -67.9441 111.001
307 6.5 11.75 1.4 13.9706 -59.5495 110.983
308 6.75 11.75 1.4 14.2078 -56.4503 117.033
309 7 11.75 1.4 14.4455 -55.538 146.71
310 7.25 11.75 1.4 14.6835 -60.8902 176.458
311 7.5 11.75 1.4 14.922 -66.0733 163.796
312 7.75 11.75 1.4 15.1608 -65.6611 169.912
313 8 11.75 1.4 15.3999 -63.7195 -175.75
314 8.25 11.75 1.4 15.6394 -58.1913 -162.51
315 8.5 11.75 1.4 15.8793 -63.4905 -130.134
316 8.75 11.75 1.4 16.1194 -61.4217 -133.565
317 9 11.75 1.4 16.3598 -59.425 -110.675
318 9.25 11.75 1.4 16.6006 -58.1458 -120.647
319 9.5 11.75 1.4 16.8415 -62.2287 -137.291
320 9.75 11.75 1.4 17.0828 -66.0728 163.134
321 10 11.75 1.4 17.3243 -64.6717 -76.5138
322 10.25 11.75 1.4 17.566 -62.871 -79.6209
323 10.5 11.75 1.4 17.808 -63.2045 -138.174
324 10.75 11.75 1.4 18.0502 -61.8385 -153.086
325 11 11.75 1.4 18.2925 -60.6182 -115.974
326 11.25 11.75 1.4 18.5351 -63.3885 -107.581
327 11.5 11.75 1.4 18.7779 -64.3688 -119.844
328 11.75 11.75 1.4 19.0209 -61.1061 -110.768
329 12 11.75 1.4 19.264 -62.0873 -96.7793
330 12.25 11.75 1.4 19.5074 -65.0617 -127.816
331 12.5 11.75 1.4 19.7509 -62.7685 -110.599
332 12.75 11.75 1.4 19.9945 -60.4633 -117.901
333 13 11.75 1.4 20.2383 -62.2196 -109.647
334 13.25 11.75 1.4 20.4823 -63.2728 -125.804
335 13.5 11.75 1.4 20.7264 -75.1571 87.1887
336 13.75 11.75 1.4 20.9706 -74.5528 -38.6152
337 14 11.75 1.4 21.215 -75.5987 -151.603
338 14.25 11.75 1.4 21.4595 -62.1096 119.351
339 14.5 11.75 1.4 21.7041 -64.8899 123.801
340 14.75 11.75 1.4 21.9489 -64.3193 144.142
341 15 11.75 1.4 22.1938 -65.0656 155.223
342 15.25 11.75 1.4 22.4387 -78.9435 -100.175
343 15.5 11.75 1.4 22.6838 -79.0459 -43.4229
344 15.75 11.75 1.4 22.929 -78.006 -33.1341
345 16 11.75 1.4 23.1743 -62.1024 -130.466
346 16.25 11.75 1.4 23.4197 -64.9722 -136.848
347 16.5 11.75 1.4 23.6652 -62.0204 -139.991
348 16.75 11.75 1.4 23.9108 -62.7112 -140.854
349 17 11.75 1.4 24.1565 -63.615 -139.072
350 17.25 11.75 1.4 24.4022 -64.5521 -154.432
351 17.5 11.75 1.4 24.6481 -65.2741 -155.146
352 17.75 11.75 1.4 24.894 -65.0204 -164.639
353 18 11.75 1.4 25.14 -63.3934 -168.926
354 18.25 11.75 1.4 25.3861 -59.7999 174.083
355 18.5 11.75 1.4 25.6323 -59.7502 175.737
356 18.75 11.75 1.4 25.8785 -60.7065 172.47
357 19 11.75 1.4 26.1249 -61.3441 162.248
358 19.25 11.75 1.4 26.3712 -68.8757 160.019
359 19.5 11.75 1.4 26.6177 -68.0356 149.259
360 19.75 11.75 1.4 26.8642 -68.8229 -112.287
361 20 11.75 1.4 27.1108 -67.068 130.36
362 20.25 11.75 1.4 27.3574 -70.3324 107.488
363 20.5 11.75 1.4 27.6041 -68.7264 93.2506
364 20.75 11.75 1.4 27.8509 -69.1003 72.9303
365 21 11.75 1.4 28.0977 -67.9446 65.6187
366 21.25 11.75 1.4 28.3446 -69.044 60.2842
367 21.5 11.75 1.4 28.5915 -67.9298 50.4067
368 21.75 11.75 1.4 28.8385 -68.2149 41.271
369 22 11.75 1.4 29.0855 -68.7559 33.2543
370 22.25 11.75 1.4 29.3326 -69.4314 18.0828
371 22.5 11.75 1.4 29.5797 -68.6171 5.12566
372 22.75 11.75 1.4 29.8269 -68.2608 4.26892
373 23 11.75 1.4 30.0741 -74.3929 49.9632
374 23.25 11.75 1.4 30.3214 -73.0854 42.0923
375 23.5 11.75 1.4 30.5687 -73.9778 43.2638
376 23.75 11.75 1.4 30.8161 -73.5175 39.4991
377 24 11.75 1.4 31.0635 -75.4267 31.7059
378 24.25 11.75 1.4 31.3109 -76.0859 20.1849
379 -7 12 1.4 4.20721 -46.4733 -162.821
380 -6.75 12 1.4 4.19937 -45.6494 172.661
381 -6.5 12 1.4 4.2064 -49.5506 175.668
382 -6.25 12 1.4 4.22822 -44.9212 100.411
383 -6 12 1.4 4.26462 -45.5761 31.2595
384 -5.75 12 1.4 4.31521 -47.6659 -95.8326
385 -5.5 12 1.4 4.37951 -51.4732 3.38919
386 -5.25 12 1.4 4.45693 -51.5081 140.229
387 -5 12 1.4 4.54679 -45.3123 -115.963
388 -4.75 12 1.4 4.64837 -49.7147 -75.5112
389 -4.5 12 1.4 4.76093 -49.9293 -41.2604
390 -4.25 12 1.4 4.8837 -48.2211 -26.1139
391 -4 12 1.4 5.01594 -48.8822 -48.293
392 -3.75 12 1.4 5.15691 -49.2676 -126.994
393 -3.5 12 1.4 5.30592 -50.7354 163.804
394 -3.25 12 1.4 5.46232 -50.1742 64.2969
395 -3 12 1.4 5.62548 -51.9328 -48.356
396 -2.75 12 1.4 5.79483 -47.7125 150.121
397 -2.5 12 1.4 5.96986 -47.9869 9.78151
398 -2.25 12 1.4 6.15006 -51.6491 -170.422
399 -2 12 1.4 6.33501 -52.8613 -37.742
400 -1.75 12 1.4 6.5243 -49.4541 131.42
401 -1.5 12 1.4 6.71756 -49.1447 -39.6098
402 -1.25 12 1.4 6.91445 -54.2173 125.211
403 -1 12 1.4 7.11468 -58.5652 -179.192
404 -0.75 12 1.4 7.31798 -48.0118 -43.4102
405 -0.5 12 1.4 7.52409 -52.1508 117.401
406 -0.25 12 1.4 7.73279 -52.6307 -155.5
407 -1.77636e-15 12 1.4 7.94387 -56.3479 -65.0344
408 0.25 12 1.4 8.15715 -54.2838 21.2532
409 0.5 12 1.4 8.37247 -55.043 115.338
410 0.75 12 1.4 8.58967 -58.1416 164.846
411 1 12 1.4 8.8086 -58.7251 -138.76
412 1.25 12 1.4 9.02915 -53.9664 -68.8735
413 1.5 12 1.4 9.2512 -52.5783 -2.84912
414 1.75 12 1.4 9.47463 -51.9537 62.4439
415 2 12 1.4 9.69937 -53.8455 108.983
416 2.25 12 1.4 9.92532 -54.7166 125.893
417 2.5 12 1.4 10.1524 -60.5982 148.848
418 2.75 12 1.4 10.3805 -53.7199 -154.271
419 3 12 1.4 10.6096 -50.6293 -74.1149
420 3.25 12 1.4 10.8397 -51.3527 -35.5963
421 3.5 12 1.4 11.0706 -71.567 44.7438
422 3.75 12 1.4 11.3023 -63.9627 -56.2611
423 4 12 1.4 11.5348 -56.8902 -96.1279
424 4.25 12 1.4 11.7679 -61.241 -150.289
425 4.5 12 1.4 12.0018 -67.9007 3.76744
426 4.75 12 1.4 12.2363 -63.5391 -52.5831
427 5 12 1.4 12.4714 -59.9816 -60.4269
428 5.25 12 1.4 12.7071 -60.5862 -34.4461
429 5.5 12 1.4 12.9433 -58.5217 -18.2792
430 5.75 12 1.4 13.1801 -61.0514 46.0954
431 6 12 1.4 13.4173 -67.0527 -123.908
432 6.25 12 1.4 13.6549 -68.3034 -60.6948
433 6.5 12 1.4 13.893 -60.1248 -53.6445
434 6.75 12 1.4 14.1315 -60.8212 -34.5252
435 7 12 1.4 14.3704 -58.6081 -54.424
436 7.25 12 1.4 14.6097 -55.5754 -32.9231
437 7.5 12 1.4 14.8493 -56.574 -8.4201
438 7.75 12 1.4 15.0893 -59.8813 12.1217
439 8 12 1.4 15.3296 -60.2353 24.2799
440 8.25 12 1.4 15.5702 -63.6006 32.9103
441 8.5 12 1.4 15.811 -62.5061 47.0404
442 8.75 12 1.4 16.0522 -68.7951 48.7852
443 9 12 1.4 16.2936 -57.7919 50.501
444 9.25 12 1.4 16.5353 -60.0319 29.6918
445 9.5 12 1.4 16.7772 -73.5466 13.0153
446 9.75 12 1.4 17.0194 -79.0407 171.711
447 10 12 1.4 17.2618 -64.5103 60.2713
448 10.25 12 1.4 17.5044 -59.5485 39.7445
449 10.5 12 1.4 17.7472 -59.5035 39.1654
450 10.75 12 1.4 17.9902 -63.1777 6.29654
451 11 12 1.4 18.2333 -60.8857 25.5647
452 11.25 12 1.4 18.4767 -60.5756 45.5298
453 11.5 12 1.4 18.7203 -62.2251 49.676
454 11.75 12 1.4 18.964 -61.1773 47.7283
455 12 12 1.4 19.2078 -62.083 62.204
456 12.25 12 1.4 19.4519 -63.8366 61.2698
457 12.5 12 1.4 19.6961 -64.5371 -169.438
458 12.75 12 1.4 19.9404 -69.0025 -132.169
459 13 12 1.4 20.1848 -68.8457 -102.442
460 13.25 12 1.4 20.4294 -78.6999 -143.338
461 13.5 12 1.4 20.6742 -74.0213 -144.274
462 13.75 12 1.4 20.919 -70.8196 -141.115
463 14 12 1.4 21.164 -72.7786 -2.46571
464 14.25 12 1.4 21.4091 -70.2994 -6.19829
465 14.5 12 1.4 21.6543 -72.3987 3.21494
466 14.75 12 1.4 21.8996 -61.4828 28.7442
467 15 12 1.4 22.145 -65.3456 29.7981
468 15.25 12 1.4 22.3905 -63.6201 32.8545
469 15.5 12 1.4 22.6361 -58.3349 -4.33581
470 15.75 12 1.4 22.8818 -63.4355 22.1239
471 16 12 1.4 23.1276 -61.7708 22.5251
472 16.25 12 1.4 23.3735 -65.3768 9.90223
473 16.5 12 1.4 23.6195 -62.992 15.4674
474 16.75 12 1.4 23.8655 -65.4197 -16.318
475 17 12 1.4 24.1117 -65.306 -35.3225
476 17.25 12 1.4 24.3579 -64.1364 -31.6677
477 17.5 12 1.4 24.6042 -75.9464 36.6215
478 17.75 12 1.4 24.8506 -77.6646 61.0496
479 18 12 1.4 25.097 -72.1599 57.7535
480 18.25 12 1.4 25.3435 -78.0591 92.7672
481 18.5 12 1.4 25.5901 -67.8224 -88.4122
482 18.75 12 1.4 25.8367 -67.6039 -106.925
483 19 12 1.4 26.0834 -70.2434 -123.558
484 19.25 12 1.4 26.3302 -67.1819 -112.138
485 19.5 12 1.4 26.577 -68.4778 -114.565
486 19.75 12 1.4 26.8239 -68.6755 -138.638
487 20 12 1.4 27.0709 -68.2178 -148.372
488 20.25 12 1.4 27.3179 -67.5244 -159.402
489 20.5 12 1.4 27.5649 -66.9222 -164.758
490 20.75 12 1.4 27.812 -68.2973 -169.552
491 21 12 1.4 28.0592 -70.7183 140.352
492 21.25 12 1.4 28.3064 -70.4703 154.984
493 21.5 12 1.4 28.5537 -85.2985 -63.3804
494 21.75 12 1.4 28.801 -113.567 50.8114
495 22 12 1.4 29.0483 -82.8249 -150.321
496 22.25 12 1.4 29.2957 -82.6168 -99.6085
497 22.5 12 1.4 29.5432 -73.7923 -166.679
498 22.75 12 1.4 29.7906 -74.7558 -159.797
499 23 12 1.4 30.0382 -86.972 -92.6451
500 23.25 12 1.4 30.2857 -88.8267 -27.0234
501 23.5 12 1.4 30.5333 -66.5013 64.025
502 23.75 12 1.4 30.781 -66.8022 54.7005
503 24 12 1.4 31.0287 -70.6438 49.4622
504 24.25 12 1.4 31.2764 -71.0591 40.616
505 -7 12.25 1.4 3.9577 -45.8039 -150.326
506 -6.75 12.25 1.4 3.94937 -45.8779 -152.32
507 -6.5 12.25 1.4 3.95684 -46.6585 -161.084
508 -6.25 12.25 1.4 3.98003 -44.8476 105.587
509 -6 12.25 1.4 4.01868 -47.4499 23.961
510 -5.75 12.25 1.4 4.07233 -48.8383 -113.889
511 -5.5 12.25 1.4 4.1404 -51.7472 -32.4403
512 -5.25 12.25 1.4 4.22221 -45.6543 119.749
513 -5 12.25 1.4 4.31696 -44.0572 -142.062
514 -4.75 12.25 1.4 4.42382 -53.3984 -99.1129
515 -4.5 12.25 1.4 4.54195 -52.3199 -87.9156
516 -4.25 12.25 1.4 4.67048 -48.3104 -128.092
517 -4 12.25 1.4 4.80858 -47.9067 174.529
518 -3.75 12.25 1.4 4.95546 -50.0178 126.021
519 -3.5 12.25 1.4 5.11035 -52.9709 24.2944
520 -3.25 12.25 1.4 5.27255 -49.2835 -90.1019
521 -3 12.25 1.4 5.4414 -51.4119 127.348
522 -2.75 12.25 1.4 5.61631 -54.5602 -58.9202
523 -2.5 12.25 1.4 5.79672 -48.7713 123.735
524 -2.25 12.25 1.4 5.98215 -51.4796 -31.1196
525 -2 12.25 1.4 6.17213 -54.0207 124.835
526 -1.75 12.25 1.4 6.36626 -54.7611 -90.6676
527 -1.5 12.25 1.4 6.56417 -48.7928 66.0362
528 -1.25 12.25 1.4 6.76553 -60.7989 156.217
529 -1 12.25 1.4 6.97005 -48.4004 -81.9469
530 -0.75 12.25 1.4 7.17744 -48.8042 66.1925
531 -0.5 12.25 1.4 7.38747 -56.7215 158.894
532 -0.25 12.25 1.4 7.59992 -54.6947 -120.43
533 -1.77636e-15 12.25 1.4 7.8146 -54.0449 -27.3588
534 0.25 12.25 1.4 8.03131 -59.9179 31.3945
535 0.5 12.25 1.4 8.24991 -55.0486 62.3028
536 0.75 12.25 1.4 8.47025 -50.3948 139.705
537 1 12.25 1.4 8.6922 -52.6973 -162.796
538 1.25 12.25 1.4 8.91562 -53.462 -77.4076
539 1.5 12.25 1.4 9.14043 -52.0918 -46.1102
540 1.75 12.25 1.4 9.36651 -51.5327 3.93599
541 2 12.25 1.4 9.59378 -56.5499 49.3553
542 2.25 12.25 1.4 9.82215 -62.1941 75.0593
543 2.5 12.25 1.4 10.0516 -57.8506 130.145
544 2.75 12.25 1.4 10.2819 -55.5551 154.607
545 3 12.25 1.4 10.5132 -49.5719 -138.347
546 3.25 12.25 1.4 10.7453 -56.3968 29.7305
547 3.5 12.25 1.4 10.9782 -53.1322 69.1451
548 3.75 12.25 1.4 11.2118 -61.3159 157.836
549 4 12.25 1.4 11.4461 -56.8364 123.99
550 4.25 12.25 1.4 11.6811 -59.276 96.8272
551 4.5 12.25 1.4 11.9166 -59.8379 146.61
552 4.75 12.25 1.4 12.1528 -61.6045 -172.274
553 5 12.25 1.4 12.3895 -62.0299 -159.847
554 5.25 12.25 1.4 12.6267 -58.5362 85.7566
555 5.5 12.25 1.4 12.8644 -58.355 104.165
556 5.75 12.25 1.4 13.1026 -58.1397 130.955
557 6 12.25 1.4 13.3411 -55.3334 153.898
558 6.25 12.25 1.4 13.5801 -57.1105 -166.712
559 6.5 12.25 1.4 13.8195 -56.8566 -172.914
560 6.75 12.25 1.4 14.0593 -59.9333 -142.643
561 7 12.25 1.4 14.2994 -61.2648 -146.313
562 7.25 12.25 1.4 14.5398 -61.7766 -177.713
563 7.5 12.25 1.4 14.7806 -71.9068 173.232
564 7.75 12.25 1.4 15.0216 -61.5693 142.153
565 8 12.25 1.4 15.263 -59.47 171.184
566 8.25 12.25 1.4 15.5046 -73.7021 -150.545
567 8.5 12.25 1.4 15.7465 -76.4696 -18.6294
568 8.75 12.25 1.4 15.9886 -63.331 -121.114
569 9 12.25 1.4 16.231 -60.6385 -143.231
570 9.25 12.25 1.4 16.4736 -79.7776 -100.81
571 9.5 12.25 1.4 16.7164 -62.6699 -149.993
572 9.75 12.25 1.4 16.9594 -61.1108 -107.679
573 10 12.25 1.4 17.2027 -57.5002 -109.084
574 10.25 12.25 1.4 17.4461 -61.2376 -144.641
575 10.5 12.25 1.4 17.6897 -58.4881 -159.8
576 10.75 12.25 1.4 17.9335 -68.0692 -137.578
577 11 12.25 1.4 18.1774 -65.4522 -134.604
578 11.25 12.25 1.4 18.4215 -69.3516 51.8341
579 11.5 12.25 1.4 18.6658 -73.4311 -21.142
580 11.75 12.25 1.4 18.9102 -73.7085 -4.42703
581 12 12.25 1.4 19.1547 -75.6352 14.8225
582 12.25 12.25 1.4 19.3994 -83.092 85.0422
583 12.5 12.25 1.4 19.6443 -80.9007 129.915
584 12.75 12.25 1.4 19.8892 -73.378 -5.22602
585 13 12.25 1.4 20.1343 -67.6243 20.755
586 13.25 12.25 1.4 20.3795 -76.647 42.2661
587 13.5 12.25 1.4 20.6248 -59.7513 165.397
588 13.75 12.25 1.4 20.8703 -59.8542 166.41
589 14 12.25 1.4 21.1158 -62.4485 -169.253
590 14.25 12.25 1.4 21.3614 -59.9413 174.663
591 14.5 12.25 1.4 21.6072 -59.8184 172.946
592 14.75 12.25 1.4 21.853 -59.2009 173.92
593 15 12.25 1.4 22.0989 -59.5594 173.968
594 15.25 12.25 1.4 22.345 -60.1134 175.817
595 15.5 12.25 1.4 22.5911 -61.1916 176.773
596 15.75 12.25 1.4 22.8373 -62.1234 171.172
597 16 12.25 1.4 23.0835 -58.0385 146.476
598 16.25 12.25 1.4 23.3299 -58.2933 151.502
599 16.5 12.25 1.4 23.5763 -58.6381 145.831
600 16.75 12.25 1.4 23.8228 -70.481 -154.19
601 17 12.25 1.4 24.0694 -67.1674 150.616
602 17.25 12.25 1.4 24.316 -69.1872 127.459
603 17.5 12.25 1.4 24.5628 -79.9938 107.378
604 17.75 12.25 1.4 24.8095 -73.3009 46.3978
605 18 12.25 1.4 25.0564 -70.9861 26.148
606 18.25 12.25 1.4 25.3033 -65.0604 42.3967
607 18.5 12.25 1.4 25.5503 -70.5995 25.0704
608 18.75 12.25 1.4 25.7973 -72.5362 -0.541774
609 19 12.25 1.4 26.0444 -69.7858 -22.4379
610 19.25 12.25 1.4 26.2915 -66.6144 -31.675
611 19.5 12.25 1.4 26.5387 -65.124 -34.502
612 19.75 12.25 1.4 26.7859 -74.1428 -60.6457
613 20 12.25 1.4 27.0332 -72.0215 -81.6779
614 20.25 12.25 1.4 27.2806 -69.2141 -125.754
615 20.5 12.25 1.4 27.528 -66.2309 -123.568
616 20.75 12.25 1.4 27.7754 -67.1629 -123.289
617 21 12.25 1.4 28.0229 -66.267 -118.341
618 21.25 12.25 1.4 28.2704 -67.4811 -115.307
619 21.5 12.25 1.4 28.518 -69.2731 -68.329
620 21.75 12.25 1.4 28.7656 -63.002 -109.532
621 22 12.25 1.4 29.0132 -65.9335 -106.006
622 22.25 12.25 1.4 29.2609 -65.9738 -124.865
623 22.5 12.25 1.4 29.5087 -65.8638 -127.217
624 22.75 12.25 1.4 29.7564 -69.7731 -145.761
625 23 12.25 1.4 30.0042 -68.5033 -168.76
626 23.25 12.25 1.4 30.2521 -69.7085 -176.772
627 23.5 12.25 1.4 30.5 -68.3567 167.392
628 23.75 12.25 1.4 30.7479 -69.6606 161.585
629 24 12.25 1.4 30.9958 -70.8154 144.638
630 24.25 12.25 1.4 31.2438 -76.0644 -105.104
631 -7 12.5 1.4 3.70826 -45.6556 -121.206
632 -6.75 12.5 1.4 3.69937 -46.0061 -120.952
633 -6.5 12.5 1.4 3.70734 -45.5019 -136.154
634 -6.25 12.5 1.4 3.73209 -47.9172 126.063
635 -6 12.5 1.4 3.77327 -46.9679 45.0969
636 -5.75 12.5 1.4 3.83036 -52.7104 -144.772
637 -5.5 12.5 1.4 3.90266 -52.1313 -54.1058
638 -5.25 12.5 1.4 3.98934 -44.6208 91.1702
639 -5 12.5 1.4 4.08949 -48.8068 175.146
640 -4.75 12.5 1.4 4.20215 -49.1788 -179.627
641 -4.5 12.5 1.4 4.32633 -47.014 -164.307
642 -4.25 12.5 1.4 4.46108 -50.0796 147.33
643 -4 12.5 1.4 4.60546 -49.6904 49.4293
644 -3.75 12.5 1.4 4.75861 -49.274 -27.2061
645 -3.5 12.5 1.4 4.9197 -47.4632 -125.175
646 -3.25 12.5 1.4 5.08798 -50.5738 87.7607
647 -3 12.5 1.4 5.26276 -47.8236 -66.8344
648 -2.75 12.5 1.4 5.44341 -51.2931 127.598
649 -2.5 12.5 1.4 5.62937 -54.2811 -88.2659
650 -2.25 12.5 1.4 5.82013 -49.1609 75.5106
651 -2 12.5 1.4 6.01523 -51.6615 -118.857
652 -1.75 12.5 1.4 6.21427 -51.8612 14.1999
653 -1.5 12.5 1.4 6.41687 -51.893 109.77
654 -1.25 12.5 1.4 6.62271 -48.9682 -138.829
655 -1 12.5 1.4 6.8315 -49.1762 3.18005
656 -0.75 12.5 1.4 7.04297 -59.0046 69.8805
657 -0.5 12.5 1.4 7.2569 -49.3947 155.407
658 -0.25 12.5 1.4 7.47306 -52.908 -64.8184
659 -1.77636e-15 12.5 1.4 7.69128 -55.6042 -80.9747
660 0.25 12.5 1.4 7.91137 -51.1511 0.0831312
661 0.5 12.5 1.4 8.1332 -51.4571 30.7528
662 0.75 12.5 1.4 8.35661 -50.8162 103.55
663 1 12.5 1.4 8.5815 -52.8784 179.527
664 1.25 12.5 1.4 8.80773 -53.2867 -136.66
665 1.5 12.5 1.4 9.03522 -52.758 -99.347
666 1.75 12.5 1.4 9.26387 -51.6814 -65.252
667 2 12.5 1.4 9.4936 -56.8174 -26.3156
668 2.25 12.5 1.4 9.72433 -63.5987 -22.5533
669 2.5 12.5 1.4 9.95598 -58.724 -108.311
670 2.75 12.5 1.4 10.1885 -56.6876 -157.588
671 3 12.5 1.4 10.4218 -67.6114 -77.3056
672 3.25 12.5 1.4 10.6559 -52.1491 -58.0105
673 3.5 12.5 1.4 10.8907 -61.4384 -4.09797
674 3.75 12.5 1.4 11.1262 -59.9743 105.892
675 4 12.5 1.4 11.3623 -57.9144 -86.9327
676 4.25 12.5 1.4 11.5989 -56.4799 -42.747
677 4.5 12.5 1.4 11.8361 -58.0261 -90.2662
678 4.75 12.5 1.4 12.0739 -57.1657 -90.4924
679 5 12.5 1.4 12.3121 -55.1354 -54.6916
680 5.25 12.5 1.4 12.5508 -55.2997 -42.1033
681 5.5 12.5 1.4 12.7899 -57.5608 -13.1542
682 5.75 12.5 1.4 13.0294 -57.5749 24.3111
683 6 12.5 1.4 13.2693 -58.3814 -0.751527
684 6.25 12.5 1.4 13.5096 -61.2249 3.93519
685 6.5 12.5 1.4 13.7502 -56.3112 -7.68687
686 6.75 12.5 1.4 13.9911 -58.8708 9.74116
687 7 12.5 1.4 14.2324 -68.6787 73.9218
688 7.25 12.5 1.4 14.4739 -69.8085 165.162
689 7.5 12.5 1.4 14.7158 -62.8135 59.6077
690 7.75 12.5 1.4 14.9579 -68.8307 63.5696
691 8 12.5 1.4 15.2002 -74.8073 95.5506
692 8.25 12.5 1.4 15.4428 -70.5301 -149.89
693 8.5 12.5 1.4 15.6857 -65.5536 -35.0641
694 8.75 12.5 1.4 15.9287 -70.5503 41.2782
695 9 12.5 1.4 16.172 -56.9664 -4.52976
696 9.25 12.5 1.4 16.4155 -63.8261 81.0722
697 9.5 12.5 1.4 16.6591 -61.5499 86.2048
698 9.75 12.5 1.4 16.903 -63.9524 68.8226
699 10 12.5 1.4 17.147 -58.6664 29.8808
700 10.25 12.5 1.4 17.3912 -71.2186 176.264
701 10.5 12.5 1.4 17.6355 -66.8511 -136.637
702 10.75 12.5 1.4 17.8801 -68.8558 -169.074
703 11 12.5 1.4 18.1247 -68.6522 125.706
704 11.25 12.5 1.4 18.3695 -69.623 158.667
705 11.5 12.5 1.4 18.6145 -73.8556 -141.177
706 11.75 12.5 1.4 18.8596 -74.8422 -103.589
707 12 12.5 1.4 19.1048 -80.49 105.696
708 12.25 12.5 1.4 19.3501 -61.4288 -5.81956
709 12.5 12.5 1.4 19.5955 -60.5776 -21.926
710 12.75 12.5 1.4 19.8411 -60.0831 -24.9418
711 13 12.5 1.4 20.0868 -60.9637 -34.5391
712 13.25 12.5 1.4 20.3325 -59.1887 -12.9514
713 13.5 12.5 1.4 20.5784 -60.1287 -26.7077
714 13.75 12.5 1.4 20.8244 -59.9148 -54.2185
715 14 12.5 1.4 21.0705 -59.3993 -46.8037
716 14.25 12.5 1.4 21.3166 -59.2577 -42.0517
717 14.5 12.5 1.4 21.5629 -65.7342 -19.333
718 14.75 12.5 1.4 21.8092 -65.1935 -20.9593
719 15 12.5 1.4 22.0556 -66.3324 -19.8339
720 15.25 12.5 1.4 22.3021 -71.5266 -20.3181
721 15.5 12.5 1.4 22.5487 -61.796 -70.5459
722 15.75 12.5 1.4 22.7954 -62.3797 -69.3901
723 16 12.5 1.4 23.0421 -61.7537 -77.2215
724 16.25 12.5 1.4 23.2889 -64.8773 -72.9498
725 16.5 12.5 1.4 23.5357 -70.4548 -91.2237
726 16.75 12.5 1.4 23.7827 -62.9255 -88.3582
727 17 12.5 1.4 24.0296 -65.0753 -161.34
728 17.25 12.5 1.4 24.2767 -64.2989 -165.482
729 17.5 12.5 1.4 24.5238 -72.6089 -92.9534
730 17.75 12.5 1.4 24.771 -65.1804 -172.317
731 18 12.5 1.4 25.0182 -75.3493 -74.3594
732 18.25 12.5 1.4 25.2655 -86.9844 12.4643
733 18.5 12.5 1.4 25.5128 -70.8736 58.1351
734 18.75 12.5 1.4 25.7602 -79.4754 46.6177
735 19 12.5 1.4 26.0076 -77.2826 142.895
736 19.25 12.5 1.4 26.2551 -87.2469 127.116
737 19.5 12.5 1.4 26.5026 -80.8824 33.1012
738 19.75 12.5 1.4 26.7502 -82.8921 4.07892
739 20 12.5 1.4 26.9978 -64.3244 49.4671
740 20.25 12.5 1.4 27.2455 -67.0543 54.1096
741 20.5 12.5 1.4 27.4932 -74.8292 90.2854
742 20.75 12.5 1.4 27.7409 -80.7819 114.907
743 21 12.5 1.4 27.9887 -73.7288 87.3849
744 21.25 12.5 1.4 28.2366 -75.5063 93.6869
745 21.5 12.5 1.4 28.4844 -68.2601 -2.83728
746 21.75 12.5 1.4 28.7323 -68.4995 -9.47909
747 22 12.5 1.4 28.9803 -63.1395 7.87796
748 22.25 12.5 1.4 29.2282 -76.6753 60.3058
749 22.5 12.5 1.4 29.4762 -78.2206 63.5225
750 22.75 12.5 1.4 29.7243 -78.6866 57.7899
751 23 12.5 1.4 29.9724 -85.0643 -121.155
752 23.25 12.5 1.4 30.2205 -90.1709 2.7114
753 23.5 12.5 1.4 30.4686 -81.7941 -114.194
754 23.75 12.5 1.4 30.7168 -89.6514 -25.1752
755 24 12.5 1.4 30.965 -88.7444 -128.237
756 24.25 12.5 1.4 31.2132 -88.2188 -128.925
757 -7 12.75 1.4 3.45891 -42.7581 -128.973
758 -6.75 12.75 1.4 3.44937 -44.786 -140.973
759 -6.5 12.75 1.4 3.45792 -43.4586 -140.33
760 -6.25 12.75 1.4 3.48444 -44.8088 128.763
761 -6 12.75 1.4 3.52851 -42.7028 26.6725
762 -5.75 12.75 1.4 3.5895 -51.9198 -145.527
763 -5.5 12.75 1.4 3.66655 -49.6482 -33.7462
764 -5.25 12.75 1.4 3.75868 -45.8798 52.0903
765 -5 12.75 1.4 3.86481 -53.0434 82.4425
766 -4.75 12.75 1.4 3.98382 -44.3113 102.606
767 -4.5 12.75 1.4 4.1146 -47.7769 74.685
768 -4.25 12.75 1.4 4.25606 -47.3979 14.4421
769 -4 12.75 1.4 4.40717 -49.9746 -37.3077
770 -3.75 12.75 1.4 4.56697 -51.21 -165.715
771 -3.5 12.75 1.4 4.73458 -47.2896 39.9902
772 -3.25 12.75 1.4 4.90921 -48.4138 -104.526
773 -3 12.75 1.4 5.09013 -51.0386 52.8941
774 -2.75 12.75 1.4 5.2767 -50.7476 -116.149
775 -2.5 12.75 1.4 5.46833 -50.5547 43.5955
776 -2.25 12.75 1.4 5.66452 -54.2868 179.9
777 -2 12.75 1.4 5.8648 -48.2349 -57.3429
778 -1.75 12.75 1.4 6.06877 -49.3617 76.163
779 -1.5 12.75 1.4 6.27607 -51.4423 -170.61
780 -1.25 12.75 1.4 6.48638 -49.6442 -71.1259
781 -1 12.75 1.4 6.69942 -60.8565 7.48608
782 -0.75 12.75 1.4 6.91493 -50.0343 88.8829
783 -0.5 12.75 1.4 7.1327 -64.3598 -95.094
784 -0.25 12.75 1.4 7.35251 -46.0159 -162.143
785 -1.77636e-15 12.75 1.4 7.5742 -51.3755 -65.5212
786 0.25 12.75 1.4 7.7976 -50.4664 -45.0804
787 0.5 12.75 1.4 8.02258 -54.5117 8.48499
788 0.75 12.75 1.4 8.24899 -53.4277 44.5817
789 1 12.75 1.4 8.47673 -53.5387 119.081
790 1.25 12.75 1.4 8.70569 -54.3412 149.647
791 1.5 12.75 1.4 8.93578 -54.6846 -166.468
792 1.75 12.75 1.4 9.16691 -54.7262 -147.038
793 2 12.75 1.4 9.399 -55.9224 80.1165
794 2.25 12.75 1.4 9.632 -60.4553 104.212
795 2.5 12.75 1.4 9.86582 -55.7078 120.869
796 2.75 12.75 1.4 10.1004 -54.118 67.9961
797 3 12.75 1.4 10.3357 -60.9926 -176.866
798 3.25 12.75 1.4 10.5717 -58.0878 -176.915
799 3.5 12.75 1.4 10.8084 -58.0931 15.9632
800 3.75 12.75 1.4 11.0456 -54.6887 76.214
801 4 12.75 1.4 11.2833 -56.5539 143.442
802 4.25 12.75 1.4 11.5216 -69.4121 62.2723
803 4.5 12.75 1.4 11.7604 -54.2124 91.2724
804 4.75 12.75 1.4 11.9996 -57.5907 143.515
805 5 12.75 1.4 12.2393 -56.0348 166.394
806 5.25 12.75 1.4 12.4794 -57.3259 159.218
807 5.5 12.75 1.4 12.7198 -57.4583 -177.595
808 5.75 12.75 1.4 12.9606 -55.8393 -179.697
809 6 12.75 1.4 13.2018 -54.7612 -166.208
810 6.25 12.75 1.4 13.4432 -57.4134 -148.952
811 6.5 12.75 1.4 13.685 -57.9707 -123.671
812 6.75 12.75 1.4 13.9271 -87.1109 -35.9656
813 7 12.75 1.4 14.1694 -63.1838 -158.886
814 7.25 12.75 1.4 14.412 -61.8702 -166.599
815 7.5 12.75 1.4 14.6549 -59.6189 -170.091
816 7.75 12.75 1.4 14.898 -58.491 -127.193
817 8 12.75 1.4 15.1413 -59.4948 -145.548
818 8.25 12.75 1.4 15.3848 -59.9002 -128.339
819 8.5 12.75 1.4 15.6286 -61.5937 -116.151
820 8.75 12.75 1.4 15.8725 -62.0014 -90.1194
821 9 12.75 1.4 16.1166 -60.6784 33.9375
822 9.25 12.75 1.4 16.3609 -64.9143 62.6651
823 9.5 12.75 1.4 16.6054 -61.3194 168.677
824 9.75 12.75 1.4 16.85 -68.6482 -123.546
825 10 12.75 1.4 17.0948 -67.3295 147.347
826 10.25 12.75 1.4 17.3397 -72.2393 4.99729
827 10.5 12.75 1.4 17.5848 -61.5277 -19.1064
828 10.75 12.75 1.4 17.83 -65.4527 -63.153
829 11 12.75 1.4 18.0754 -60.2168 171.417
830 11.25 12.75 1.4 18.3208 -60.3284 141.598
831 11.5 12.75 1.4 18.5664 -62.1703 143.613
832 11.75 12.75 1.4 18.8121 -61.7827 128.222
833 12 12.75 1.4 19.0579 -61.3637 121.652
834 12.25 12.75 1.4 19.3039 -59.9764 123.383
835 12.5 12.75 1.4 19.5499 -60.1845 119.383
836 12.75 12.75 1.4 19.796 -58.9646 107.934
837 13 12.75 1.4 20.0422 -58.5444 99.1511
838 13.25 12.75 1.4 20.2886 -61.1181 96.9034
839 13.5 12.75 1.4 20.535 -58.4864 108.521
840 13.75 12.75 1.4 20.7814 -58.6408 98.945
841 14 12.75 1.4 21.028 -60.5595 85.9176
842 14.25 12.75 1.4 21.2747 -59.2188 63.0893
843 14.5 12.75 1.4 21.5214 -58.2638 63.4128
844 14.75 12.75 1.4 21.7682 -60.1803 64.0213
845 15 12.75 1.4 22.0151 -60.927 56.2992
846 15.25 12.75 1.4 22.262 -61.9727 56.2292
847 15.5 12.75 1.4 22.509 -63.7856 63.3237
848 15.75 12.75 1.4 22.7561 -68.9394 39.0732
849 16 12.75 1.4 23.0033 -67.255 -4.86964
850 16.25 12.75 1.4 23.2505 -63.6111 -20.9857
851 16.5 12.75 1.4 23.4977 -72.7876 132.84
852 16.75 12.75 1.4 23.7451 -71.6418 122.262
853 17 12.75 1.4 23.9924 -70.4464 125.266
854 17.25 12.75 1.4 24.2399 -69.3178 143.414
855 17.5 12.75 1.4 24.4873 -69.5093 159.393
856 17.75 12.75 1.4 24.7349 -63.6391 170.79
857 18 12.75 1.4 24.9825 -67.1675 -171.391
858 18.25 12.75 1.4 25.2301 -60.9353 -136.329
859 18.5 12.75 1.4 25.4778 -60.6922 -138.64
860 18.75 12.75 1.4 25.7255 -60.5692 -141.691
861 19 12.75 1.4 25.9732 -63.0519 -130.817
862 19.25 12.75 1.4 26.221 -63.9598 -138.71
863 19.5 12.75 1.4 26.4689 -63.9637 -148.029
864 19.75 12.75 1.4 26.7168 -65.6153 -151.283
865 20 12.75 1.4 26.9647 -67.8134 -163.98
866 20.25 12.75 1.4 27.2127 -66.2511 150.935
867 20.5 12.75 1.4 27.4607 -70.5304 160.869
868 20.75 12.75 1.4 27.7087 -71.8475 136.894
869 21 12.75 1.4 27.9568 -74.2974 -73.6788
870 21.25 12.75 1.4 28.2049 -74.1776 -69.753
871 21.5 12.75 1.4 28.453 -77.5342 -67.1712
872 21.75 12.75 1.4 28.7012 -80.6594 -62.823
873 22 12.75 1.4 28.9494 -74.5861 -62.3965
874 22.25 12.75 1.4 29.1976 -74.371 -59.8641
875 22.5 12.75 1.4 29.4459 -70.8567 -104.196
876 22.75 12.75 1.4 29.6942 -70.3405 -105.915
877 23 12.75 1.4 29.9425 -69.6428 -98.4693
878 23.25 12.75 1.4 30.1909 -73.4917 20.194
879 23.5 12.75 1.4 30.4392 -88.5649 -56.5787
880 23.75 12.75 1.4 30.6877 -73.6319 -63.7885
881 24 12.75 1.4 30.9361 -77.7845 -33.7672
882 24.25 12.75 1.4 31.1845 -76.1607 -15.5612
883 -7 13 1.4 3.20965 -42.9262 -111.459
884 -6.75 13 1.4 3.19937 -46.069 -113.381
885 -6.5 13 1.4 3.20859 -42.5638 -129.25
886 -6.25 13 1.4 3.23715 -46.7086 167.289
887 -6 13 1.4 3.28454 -43.9762 27.4141
888 -5.75 13 1.4 3.34997 -51.8309 -145.055
889 -5.5 13 1.4 3.4324 -44.3315 -92.5632
890 -5.25 13 1.4 3.53065 -44.3086 9.63543
891 -5 13 1.4 3.64343 -48.077 44.6101
892 -4.75 13 1.4 3.76944 -45.8689 46.8418
893 -4.5 13 1.4 3.9074 -46.1864 -42.1088
894 -4.25 13 1.4 4.05609 -48.9349 -102.103
895 -4 13 1.4 4.21437 -46.9114 153.128
896 -3.75 13 1.4 4.38121 -46.7314 22.9907
897 -3.5 13 1.4 4.55567 -51.9245 -146.871
898 -3.25 13 1.4 4.7369 -48.8776 29.6534
899 -3 13 1.4 4.92415 -51.4109 -137.594
900 -2.75 13 1.4 5.11677 -51.2317 -0.0660036
901 -2.5 13 1.4 5.31418 -51.4327 151.257
902 -2.25 13 1.4 5.51585 -51.8707 -98.3175
903 -2 13 1.4 5.72133 -48.8011 -2.0133
904 -1.75 13 1.4 5.93024 -49.0414 133.044
905 -1.5 13 1.4 6.14222 -50.0821 -131.709
906 -1.25 13 1.4 6.35696 -56.8759 -76.4972
907 -1 13 1.4 6.57419 -53.194 1.50907
908 -0.75 13 1.4 6.79368 -54.4118 70.2794
909 -0.5 13 1.4 7.01521 -48.0988 128.614
910 -0.25 13 1.4 7.2386 -53.6088 151.809
911 -1.77636e-15 13 1.4 7.46367 -46.8117 -134.173
912 0.25 13 1.4 7.69028 -53.3534 -104.518
913 0.5 13 1.4 7.9183 -54.5012 -45.7271
914 0.75 13 1.4 8.14761 -59.1958 -17.3899
915 1 13 1.4 8.37811 -56.5348 36.1926
916 1.25 13 1.4 8.60969 -59.3197 -169.922
917 1.5 13 1.4 8.84228 -59.3957 -117.766
918 1.75 13 1.4 9.07579 -63.4122 -35.6475
919 2 13 1.4 9.31016 -65.8358 -77.9771
920 2.25 13 1.4 9.54532 -57.9396 61.0685
921 2.5 13 1.4 9.78122 -61.5254 17.6977
922 2.75 13 1.4 10.0178 -66.5436 -92.0641
923 3 13 1.4 10.255 -65.576 -136.568
924 3.25 13 1.4 10.4928 -55.7644 -70.1954
925 3.5 13 1.4 10.7312 -52.122 -72.7634
926 3.75 13 1.4 10.9701 -60.4934 -27.8403
927 4 13 1.4 11.2095 -63.3313 -111.265
928 4.25 13 1.4 11.4493 -53.2008 -55.4229
929 4.5 13 1.4 11.6895 -51.3069 -11.0008
930 4.75 13 1.4 11.9302 -58.3304 43.495
931 5 13 1.4 12.1712 -62.6269 170.091
932 5.25 13 1.4 12.4126 -73.5373 -54.399
933 5.5 13 1.4 12.6543 -57.9094 28.119
934 5.75 13 1.4 12.8963 -83.7187 -163.299
935 6 13 1.4 13.1387 -60.1943 3.79669
936 6.25 13 1.4 13.3813 -63.8562 -13.2442
937 6.5 13 1.4 13.6242 -58.0794 22.1397
938 6.75 13 1.4 13.8673 -57.1802 26.1092
939 7 13 1.4 14.1107 -56.8965 39.7113
940 7.25 13 1.4 14.3543 -57.8395 34.4969
941 7.5 13 1.4 14.5981 -61.3894 -8.64551
942 7.75 13 1.4 14.8421 -59.0947 9.99935
943 8 13 1.4 15.0863 -69.4917 -46.4662
944 8.25 13 1.4 15.3307 -64.8802 28.1727
945 8.5 13 1.4 15.5753 -71.4264 154.295
946 8.75 13 1.4 15.8201 -70.0195 97.3194
947 9 13 1.4 16.065 -61.0712 103.579
948 9.25 13 1.4 16.31 -60.4317 156.128
949 9.5 13 1.4 16.5553 -63.3395 -67.2554
950 9.75 13 1.4 16.8006 -58.655 -81.8095
951 10 13 1.4 17.0461 -56.2854 -72.6387
952 10.25 13 1.4 17.2917 -61.9547 -69.9005
953 10.5 13 1.4 17.5375 -65.8454 -44.7882
954 10.75 13 1.4 17.7833 -64.0192 -11.7693
955 11 13 1.4 18.0293 -63.2172 -30.4581
956 11.25 13 1.4 18.2754 -60.0332 -72.9781
957 11.5 13 1.4 18.5216 -61.4137 -77.0275
958 11.75 13 1.4 18.7679 -73.6661 -20.4534
959 12 13 1.4 19.0143 -80.3744 -25.7923
960 12.25 13 1.4 19.2608 -81.5644 22.4445
961 12.5 13 1.4 19.5073 -60.0236 -140.008
962 12.75 13 1.4 19.754 -60.8343 -136.48
963 13 13 1.4 20.0007 -74.0602 -86.7678
964 13.25 13 1.4 20.2475 -67.9011 -154.727
965 13.5 13 1.4 20.4944 -61.0719 -149.785
966 13.75 13 1.4 20.7414 -62.2712 -161.62
967 14 13 1.4 20.9885 -63.5236 -165.678
968 14.25 13 1.4 21.2356 -65.2078 -166.775
969 14.5 13 1.4 21.4827 -66.9738 160.866
970 14.75 13 1.4 21.73 -73.5672 -40.597
971 15 13 1.4 21.9773 -75.7556 -120.031
972 15.25 13 1.4 22.2247 -83.3056 -5.54642
973 15.5 13 1.4 22.4721 -92.7745 -104.855
974 15.75 13 1.4 22.7196 -74.6711 -146.649
975 16 13 1.4 22.9671 -74.5608 -110.194
976 16.25 13 1.4 23.2147 -70.668 47.4013
977 16.5 13 1.4 23.4623 -74.2136 -95.2779
978 16.75 13 1.4 23.71 -87.6977 54.6235
979 17 13 1.4 23.9578 -68.6986 -1.36778
980 17.25 13 1.4 24.2055 -69.0461 16.46
981 17.5 13 1.4 24.4534 -75.0496 24.9228
982 17.75 13 1.4 24.7012 -75.0713 34.2347
983 18 13 1.4 24.9492 -64.3294 0.187808
984 18.25 13 1.4 25.1971 -75.1579 40.2383
985 18.5 13 1.4 25.4451 -84.07 -53.0899
986 18.75 13 1.4 25.6932 -83.4531 35.4981
987 19 13 1.4 25.9412 -65.4692 2.03164
988 19.25 13 1.4 26.1893 -66.7903 8.48752
989 19.5 13 1.4 26.4375 -72.593 135.431
990 19.75 13 1.4 26.6857 -71.0861 77.4545
991 20 13 1.4 26.9339 -84.5339 89.4221
992 20.25 13 1.4 27.1821 -90.9625 -175.735
993 20.5 13 1.4 27.4304 -73.4415 107.845
994 20.75 13 1.4 27.6787 -93.6085 -160.529
995 21 13 1.4 27.927 -72.3655 96.3202
996 21.25 13 1.4 28.1754 -88.8754 166.245
997 21.5 13 1.4 28.4238 -83.8208 47.4944
998 21.75 13 1.4 28.6722 -81.0416 93.8305
999 22 13 1.4 28.9207 -84.6699 38.3571
1000 22.25 13 1.4 29.1692 -82.5806 -42.8226
1001 22.5 13 1.4 29.4177 -82.78 -50.0386
1002 22.75 13 1.4 29.6662 -82.7939 -50.1075
1003 23 13 1.4 29.9148 -83.568 98.473
1004 23.25 13 1.4 30.1633 -81.4872 95.3724
1005 23.5 13 1.4 30.4119 -88.6573 141.914
1006 23.75 13 1.4 30.6606 -88.753 -36.8363
1007 24 13 1.4 30.9092 -87.4787 -58.3075
1008 24.25 13 1.4 31.1579 -85.4809 -145.139
1009 -7 13.25 1.4 2.96052 -41.3457 -104.391
1010 -6.75 13.25 1.4 2.94937 -45.7104 -96.8592
1011 -6.5 13.25 1.4 2.95937 -41.3945 -123.497
1012 -6.25 13.25 1.4 2.99031 -42.8497 172.454
1013 -6 13.25 1.4 3.04155 -44.5533 19.1857
1014 -5.75 13.25 1.4 3.11209 -46.6027 -153.115
1015 -5.5 13.25 1.4 3.20066 -43.8048 -117.385
1016 -5.25 13.25 1.4 3.3058 -47.025 -16.4332
1017 -5 13.25 1.4 3.42599 -44.5003 -53.6532
1018 -4.75 13.25 1.4 3.5597 -48.5654 -80.2477
1019 -4.5 13.25 1.4 3.70548 -49.0715 -116.452
1020 -4.25 13.25 1.4 3.86195 -48.1902 97.4994
1021 -4 13.25 1.4 4.02787 -47.0064 -22.6196
1022 -3.75 13.25 1.4 4.20212 -48.6453 177.61
1023 -3.5 13.25 1.4 4.38371 -47.7045 13.9677
1024 -3.25 13.25 1.4 4.57176 -51.4596 154.12
1025 -3 13.25 1.4 4.76551 -47.7923 -43.1617
1026 -2.75 13.25 1.4 4.96429 -48.6972 110.712
1027 -2.5 13.25 1.4 5.16752 -49.2503 -151.71
1028 -2.25 13.25 1.4 5.3747 -49.283 -23.347
1029 -2 13.25 1.4 5.58538 -50.7718 65.2196
1030 -1.75 13.25 1.4 5.79919 -50.4005 135.619
1031 -1.5 13.25 1.4 6.01578 -55.7499 -121.561
1032 -1.25 13.25 1.4 6.23488 -48.9801 -89.8065
1033 -1 13.25 1.4 6.45622 -49.2785 -43.2087
1034 -0.75 13.25 1.4 6.67959 -46.4822 33.7473
1035 -0.5 13.25 1.4 6.90478 -55.6288 54.8458
1036 -0.25 13.25 1.4 7.13163 -50.2427 119.083
1037 -1.77636e-15 13.25 1.4 7.35997 -52.6491 129.426
1038 0.25 13.25 1.4 7.58968 -58.7898 -162.495
1039 0.5 13.25 1.4 7.82064 -59.3221 -131.549
1040 0.75 13.25 1.4 8.05273 -55.8466 75.4919
1041 1 13.25 1.4 8.28586 -57.9022 105.139
1042 1.25 13.25 1.4 8.51995 -55.3984 87.0586
1043 1.5 13.25 1.4 8.75493 -60.7233 113.761
1044 1.75 13.25 1.4 8.99071 -71.6859 -178.536
1045 2 13.25 1.4 9.22724 -62.7933 148.576
1046 2.25 13.25 1.4 9.46446 -55.5991 54.9973
1047 2.5 13.25 1.4 9.70232 -54.5378 129.383
1048 2.75 13.25 1.4 9.94078 -54.7757 132.558
1049 3 13.25 1.4 10.1798 -62.488 149.104
1050 3.25 13.25 1.4 10.4193 -55.3436 162.755
1051 3.5 13.25 1.4 10.6593 -56.3299 145.535
1052 3.75 13.25 1.4 10.8998 -57.6036 148.106
1053 4 13.25 1.4 11.1407 -55.5025 147.787
1054 4.25 13.25 1.4 11.3819 -52.366 -172.56
1055 4.5 13.25 1.4 11.6236 -62.7568 -162.243
1056 4.75 13.25 1.4 11.8656 -60.083 55.541
1057 5 13.25 1.4 12.1079 -51.6515 167.968
1058 5.25 13.25 1.4 12.3505 -56.1407 -162.743
1059 5.5 13.25 1.4 12.5934 -61.8906 -136.131
1060 5.75 13.25 1.4 12.8366 -56.4305 170.434
1061 6 13.25 1.4 13.08 -55.9275 178.852
1062 6.25 13.25 1.4 13.3237 -60.046 -162.906
1063 6.5 13.25 1.4 13.5676 -58.5328 -167.632
1064 6.75 13.25 1.4 13.8118 -65.6316 -143.638
1065 7 13.25 1.4 14.0561 -66.5874 -27.7046
1066 7.25 13.25 1.4 14.3006 -63.4993 167.675
1067 7.5 13.25 1.4 14.5453 -75.4955 -61.4992
1068 7.75 13.25 1.4 14.7902 -66.6451 -99.2653
1069 8 13.25 1.4 15.0353 -63.3341 19.3875
1070 8.25 13.25 1.4 15.2805 -57.3274 135.016
1071 8.5 13.25 1.4 15.5259 -60.9646 125.58
1072 8.75 13.25 1.4 15.7714 -61.49 124.888
1073 9 13.25 1.4 16.0171 -61.6959 137.993
1074 9.25 13.25 1.4 16.2629 -65.8208 161.839
1075 9.5 13.25 1.4 16.5088 -67.8126 162.934
1076 9.75 13.25 1.4 16.7548 -62.6737 21.0995
1077 10 13.25 1.4 17.001 -57.7627 18.5506
1078 10.25 13.25 1.4 17.2472 -56.9867 41.6026
1079 10.5 13.25 1.4 17.4936 -57.9032 66.2957
1080 10.75 13.25 1.4 17.7401 -56.0145 94.5058
1081 11 13.25 1.4 17.9866 -59.6836 69.3249
1082 11.25 13.25 1.4 18.2333 -60.7365 31.4412
1083 11.5 13.25 1.4 18.4801 -58.7103 -13.6759
1084 11.75 13.25 1.4 18.7269 -58.982 -2.59078
1085 12 13.25 1.4 18.9738 -60.4757 8.17181
1086 12.25 13.25 1.4 19.2208 -61.4173 -5.87343
1087 12.5 13.25 1.4 19.4679 -60.2825 -21.9701
1088 12.75 13.25 1.4 19.715 -61.3567 -43.6914
1089 13 13.25 1.4 19.9623 -81.2423 -9.24247
1090 13.25 13.25 1.4 20.2095 -68.7323 -14.9713
1091 13.5 13.25 1.4 20.4569 -70.1413 17.1021
1092 13.75 13.25 1.4 20.7043 -69.3206 31.1904
1093 14 13.25 1.4 20.9518 -72.4258 30.7836
1094 14.25 13.25 1.4 21.1993 -69.139 93.602
1095 14.5 13.25 1.4 21.4469 -63.0914 -99.1183
1096 14.75 13.25 1.4 21.6946 -63.0065 -111.191
1097 15 13.25 1.4 21.9423 -58.201 -117.812
1098 15.25 13.25 1.4 22.1901 -63.0283 -122.965
1099 15.5 13.25 1.4 22.4379 -65.107 -148.92
1100 15.75 13.25 1.4 22.6857 -66.3752 -171.318
1101 16 13.25 1.4 22.9336 -64.3876 178.001
1102 16.25 13.25 1.4 23.1816 -64.633 173.448
1103 16.5 13.25 1.4 23.4296 -62.7902 164.002
1104 16.75 13.25 1.4 23.6776 -63.5807 155.775
1105 17 13.25 1.4 23.9257 -73.9984 136.496
1106 17.25 13.25 1.4 24.1738 -74.0144 141.386
1107 17.5 13.25 1.4 24.4219 -75.0952 146.97
1108 17.75 13.25 1.4 24.6701 -77.0734 167.691
1109 18 13.25 1.4 24.9183 -77.105 -165.495
1110 18.25 13.25 1.4 25.1666 -73.3339 -149.185
1111 18.5 13.25 1.4 25.4149 -76.2971 -147.707
1112 18.75 13.25 1.4 25.6632 -75.6455 -145.086
1113 19 13.25 1.4 25.9116 -73.8971 -134.329
1114 19.25 13.25 1.4 26.16 -71.6484 -115.251
1115 19.5 13.25 1.4 26.4084 -67.1275 -152.766
1116 19.75 13.25 1.4 26.6568 -66.9882 -147.974
1117 20 13.25 1.4 26.9053 -67.1277 -139.129
1118 20.25 13.25 1.4 27.1538 -67.2202 -131.166
1119 20.5 13.25 1.4 27.4024 -67.2761 -121.344
1120 20.75 13.25 1.4 27.6509 -71.1388 -79.3318
1121 21 13.25 1.4 27.8995 -72.1129 -70.9698
1122 21.25 13.25 1.4 28.1481 -73.1772 -67.1604
1123 21.5 13.25 1.4 28.3968 -74.2589 -57.6252
1124 21.75 13.25 1.4 28.6454 -73.6726 -45.6407
1125 22 13.25 1.4 28.8941 -73.6979 -46.6049
1126 22.25 13.25 1.4 29.1428 -91.7176 -31.318
1127 22.5 13.25 1.4 29.3915 -73.0291 -51.0776
1128 22.75 13.25 1.4 29.6403 -71.351 -36.9071
1129 23 13.25 1.4 29.8891 -72.7712 -14.9099
1130 23.25 13.25 1.4 30.1378 -73.1589 -5.48176
1131 23.5 13.25 1.4 30.3867 -74.4512 -12.6358
1132 23.75 13.25 1.4 30.6355 -75.9743 -19.5567
1133 24 13.25 1.4 30.8843 -77.6112 -20.9271
1134 24.25 13.25 1.4 31.1332 -78.1909 -11.1328
1135 -7 13.5 1.4 2.71155 -41.6289 -84.5209
1136 -6.75 13.5 1.4 2.69937 -44.9315 -48.5509
1137 -6.5 13.5 1.4 2.71029 -44.4946 -108.282
1138 -6.25 13.5 1.4 2.74404 -41.6313 -174.083
1139 -6 13.5 1.4 2.7998 -49.1861 23.7118
1140 -5.75 13.5 1.4 2.87627 -47.4498 148.245
1141 -5.5 13.5 1.4 2.97187 -42.2919 -153.899
1142 -5.25 13.5 1.4 3.08482 -47.4956 -87.5372
1143 -5 13.5 1.4 3.21329 -44.6774 -128.604
1144 -4.75 13.5 1.4 3.35549 -45.814 146.601
1145 -4.5 13.5 1.4 3.50976 -48.384 60.6528
1146 -4.25 13.5 1.4 3.67457 -45.55 -41.2018
1147 -4 13.5 1.4 3.84858 -47.3879 137.569
1148 -3.75 13.5 1.4 4.03059 -48.5268 -31.2627
1149 -3.5 13.5 1.4 4.21957 -49.3926 128.683
1150 -3.25 13.5 1.4 4.41462 -50.3912 -71.9425
1151 -3 13.5 1.4 4.61497 -51.1743 41.9611
1152 -2.75 13.5 1.4 4.81996 -46.0364 153.974
1153 -2.5 13.5 1.4 5.02903 -47.9658 -89.3796
1154 -2.25 13.5 1.4 5.24168 -50.7006 -1.42987
1155 -2 13.5 1.4 5.4575 -55.8571 88.2406
1156 -1.75 13.5 1.4 5.67612 -55.6506 130.861
1157 -1.5 13.5 1.4 5.89724 -47.2841 -179.553
1158 -1.25 13.5 1.4 6.12058 -49.36 -122.567
1159 -1 13.5 1.4 6.34592 -50.5447 -80.895
1160 -0.75 13.5 1.4 6.57303 -51.0819 -26.8119
1161 -0.5 13.5 1.4 6.80175 -51.0071 29.246
1162 -0.25 13.5 1.4 7.03192 -53.4503 24.224
1163 -1.77636e-15 13.5 1.4 7.2634 -55.7287 -129.752
1164 0.25 13.5 1.4 7.49607 -61.8129 -17.5545
1165 0.5 13.5 1.4 7.72982 -56.6316 -53.7239
1166 0.75 13.5 1.4 7.96456 -60.286 -42.0517
1167 1 13.5 1.4 8.2002 -63.0297 -5.28168
1168 1.25 13.5 1.4 8.43667 -64.2711 -73.7554
1169 1.5 13.5 1.4 8.6739 -52.8301 -103.177
1170 1.75 13.5 1.4 8.91182 -53.8988 -72.699
1171 2 13.5 1.4 9.15039 -53.0635 -63.9059
1172 2.25 13.5 1.4 9.38956 -57.0962 -95.9646
1173 2.5 13.5 1.4 9.62927 -57.0793 -33.9349
1174 2.75 13.5 1.4 9.8695 -52.8998 -65.0135
1175 3 13.5 1.4 10.1102 -57.9423 -70.5563
1176 3.25 13.5 1.4 10.3513 -62.6715 101.547
1177 3.5 13.5 1.4 10.5929 -59.7327 -25.9907
1178 3.75 13.5 1.4 10.8348 -69.5248 -0.268735
1179 4 13.5 1.4 11.0771 -59.7559 -32.2911
1180 4.25 13.5 1.4 11.3197 -57.1904 -54.3999
1181 4.5 13.5 1.4 11.5627 -54.1112 -32.5101
1182 4.75 13.5 1.4 11.8059 -54.1051 -3.06296
1183 5 13.5 1.4 12.0494 -61.8857 12.8754
1184 5.25 13.5 1.4 12.2932 -56.5322 -69.1534
1185 5.5 13.5 1.4 12.5372 -53.3981 -21.3466
1186 5.75 13.5 1.4 12.7815 -59.0212 42.3973
1187 6 13.5 1.4 13.0259 -73.9376 -119.449
1188 6.25 13.5 1.4 13.2706 -80.1458 95.6609
1189 6.5 13.5 1.4 13.5155 -63.0532 122.753
1190 6.75 13.5 1.4 13.7605 -62.0126 -40.9082
1191 7 13.5 1.4 14.0058 -63.1913 -95.2145
1192 7.25 13.5 1.4 14.2512 -57.5383 -53.265
1193 7.5 13.5 1.4 14.4967 -66.5573 -176.276
1194 7.75 13.5 1.4 14.7424 -64.7417 -19.473
1195 8 13.5 1.4 14.9883 -68.0625 -74.8457
1196 8.25 13.5 1.4 15.2342 -65.1982 -89.1481
1197 8.5 13.5 1.4 15.4803 -62.2497 -98.445
1198 8.75 13.5 1.4 15.7266 -72.056 161.784
1199 9 13.5 1.4 15.9729 -72.0304 -159.054
1200 9.25 13.5 1.4 16.2194 -68.4636 16.4169
1201 9.5 13.5 1.4 16.4659 -66.4091 -111.826
1202 9.75 13.5 1.4 16.7126 -63.9857 166.935
1203 10 13.5 1.4 16.9594 -63.2915 115.263
1204 10.25 13.5 1.4 17.2062 -60.2773 113.771
1205 10.5 13.5 1.4 17.4532 -56.9515 157.531
1206 10.75 13.5 1.4 17.7002 -55.5524 -174.961
1207 11 13.5 1.4 17.9473 -57.8702 179.11
1208 11.25 13.5 1.4 18.1945 -58.7898 168.477
1209 11.5 13.5 1.4 18.4418 -71.9531 64.5796
1210 11.75 13.5 1.4 18.6891 -67.2486 83.9959
1211 12 13.5 1.4 18.9366 -69.8246 77.698
1212 12.25 13.5 1.4 19.184 -73.0883 138.857
1213 12.5 13.5 1.4 19.4316 -76.5641 -156.44
1214 12.75 13.5 1.4 19.6792 -75.9606 85.4974
1215 13 13.5 1.4 19.9269 -75.6159 -67.1097
1216 13.25 13.5 1.4 20.1746 -75.1645 27.3792
1217 13.5 13.5 1.4 20.4224 -76.8806 53.6179
1218 13.75 13.5 1.4 20.6702 -76.1093 29.1899
1219 14 13.5 1.4 20.9181 -61.8753 43.8833
1220 14.25 13.5 1.4 21.166 -65.0727 35.6823
1221 14.5 13.5 1.4 21.414 -64.6559 91.4919
1222 14.75 13.5 1.4 21.662 -75.892 -110.904
1223 15 13.5 1.4 21.9101 -70.4652 -99.8323
1224 15.25 13.5 1.4 22.1582 -68.4901 -73.4391
1225 15.5 13.5 1.4 22.4064 -69.7985 -33.2546
1226 15.75 13.5 1.4 22.6546 -70.0497 9.7354
1227 16 13.5 1.4 22.9028 -73.7275 34.5869
1228 16.25 13.5 1.4 23.1511 -76.1225 -12.8877
1229 16.5 13.5 1.4 23.3994 -75.7667 -141.902
1230 16.75 13.5 1.4 23.6477 -75.1724 -137.181
1231 17 13.5 1.4 23.8961 -74.5636 -99.9809
1232 17.25 13.5 1.4 24.1445 -74.4231 -66.8248
1233 17.5 13.5 1.4 24.393 -76.1284 -37.2512
1234 17.75 13.5 1.4 24.6415 -79.9785 -36.1834
1235 18 13.5 1.4 24.89 -77.1801 -43.5539
1236 18.25 13.5 1.4 25.1385 -72.5494 -31.1862
1237 18.5 13.5 1.4 25.3871 -75.4414 -1.48783
1238 18.75 13.5 1.4 25.6357 -74.0804 11.9742
1239 19 13.5 1.4 25.8843 -75.5286 22.7049
1240 19.25 13.5 1.4 26.133 -74.7704 22.3877
1241 19.5 13.5 1.4 26.3816 -72.4905 24.485
1242 19.75 13.5 1.4 26.6303 -72.4061 43.7903
1243 20 13.5 1.4 26.8791 -74.085 72.1215
1244 20.25 13.5 1.4 27.1278 -73.9633 75.2957
1245 20.5 13.5 1.4 27.3766 -84.9693 114.863
1246 20.75 13.5 1.4 27.6254 -72.3498 167.126
1247 21 13.5 1.4 27.8742 -70.6148 42.1363
1248 21.25 13.5 1.4 28.123 -74.2253 -164.213
1249 21.5 13.5 1.4 28.3719 -70.843 177.053
1250 21.75 13.5 1.4 28.6208 -82.9815 138.689
1251 22 13.5 1.4 28.8697 -82.2312 -168.687
1252 22.25 13.5 1.4 29.1186 -85.4582 137.459
1253 22.5 13.5 1.4 29.3675 -77.94 -112.396
1254 22.75 13.5 1.4 29.6165 -80.8531 -101.146
1255 23 13.5 1.4 29.8654 -83.4686 93.6495
1256 23.25 13.5 1.4 30.1144 -88.4551 75.9379
1257 23.5 13.5 1.4 30.3634 -81.1349 -80.374
1258 23.75 13.5 1.4 30.6124 -92.5329 17.0295
1259 24 13.5 1.4 30.8615 -80.9167 -50.2932
1260 24.25 13.5 1.4 31.1105 -80.1411 -25.999
1261 -7 13.75 1.4 2.46279 -41.6934 -82.7422
1262 -6.75 13.75 1.4 2.44937 -45.3462 -28.7702
1263 -6.5 13.75 1.4 2.4614 -46.4236 -94.6906
1264 -6.25 13.75 1.4 2.49852 -41.8999 171.997
1265 -6 13.75 1.4 2.55963 -45.1383 9.28728
1266 -5.75 13.75 1.4 2.64306 -45.779 107.493
1267 -5.5 13.75 1.4 2.74679 -42.6235 -177.985
1268 -5.25 13.75 1.4 2.86861 -45.364 131.864
1269 -5 13.75 1.4 3.00633 -46.9315 115.818
1270 -4.75 13.75 1.4 3.15787 -44.4435 48.1314
1271 -4.5 13.75 1.4 3.32133 -43.8204 -90.1664
1272 -4.25 13.75 1.4 3.49504 -44.8637 96.1634
1273 -4 13.75 1.4 3.67755 -49.5162 -50.3358
1274 -3.75 13.75 1.4 3.86762 -48.0381 80.8097
1275 -3.5 13.75 1.4 4.06418 -48.3404 -118.749
1276 -3.25 13.75 1.4 4.26634 -48.145 5.76338
1277 -3 13.75 1.4 4.47334 -49.2807 106.173
1278 -2.75 13.75 1.4 4.68453 -48.416 -166.596
1279 -2.5 13.75 1.4 4.89938 -49.2065 -66.4826
1280 -2.25 13.75 1.4 5.11742 -56.4078 -31.7877
1281 -2 13.75 1.4 5.33827 -47.8199 35.0506
1282 -1.75 13.75 1.4 5.56158 -51.1665 75.1728
1283 -1.5 13.75 1.4 5.78708 -50.0566 121.546
1284 -1.25 13.75 1.4 6.01451 -52.4382 172.484
1285 -1 13.75 1.4 6.24367 -56.0463 -118.858
1286 -0.75 13.75 1.4 6.47438 -55.1357 -74.7401
1287 -0.5 13.75 1.4 6.70646 -58.66 57.6425
1288 -0.25 13.75 1.4 6.93979 -51.5199 94.5746
1289 -1.77636e-15 13.75 1.4 7.17425 -64.0406 -2.16392
1290 0.25 13.75 1.4 7.40972 -58.4806 -176.098
1291 0.5 13.75 1.4 7.64611 -57.2352 129.813
1292 0.75 13.75 1.4 7.88334 -55.1224 67.8888
1293 1 13.75 1.4 8.12134 -60.927 64.7299
1294 1.25 13.75 1.4 8.36004 -53.5172 109.979
1295 1.5 13.75 1.4 8.59938 -59.0354 121.981
1296 1.75 13.75 1.4 8.83931 -52.9117 158.649
1297 2 13.75 1.4 9.07979 -53.2427 134.791
1298 2.25 13.75 1.4 9.32076 -57.7733 125.275
1299 2.5 13.75 1.4 9.5622 -53.271 -175.301
1300 2.75 13.75 1.4 9.80407 -66.8882 142.793
1301 3 13.75 1.4 10.0463 -57.9536 128.168
1302 3.25 13.75 1.4 10.289 -62.2104 122.704
1303 3.5 13.75 1.4 10.532 -57.9684 125.646
1304 3.75 13.75 1.4 10.7753 -57.2863 153.923
1305 4 13.75 1.4 11.0189 -59.0733 130.117
1306 4.25 13.75 1.4 11.2627 -57.1927 140.251
1307 4.5 13.75 1.4 11.5069 -61.6295 -114.08
1308 4.75 13.75 1.4 11.7513 -66.7996 -42.0486
1309 5 13.75 1.4 11.9959 -67.7833 73.6811
1310 5.25 13.75 1.4 12.2407 -61.6115 -163.771
1311 5.5 13.75 1.4 12.4858 -59.2644 -73.6068
1312 5.75 13.75 1.4 12.731 -58.4607 104.482
1313 6 13.75 1.4 12.9764 -54.4252 108.451
1314 6.25 13.75 1.4 13.222 -54.2204 136.947
1315 6.5 13.75 1.4 13.4678 -64.2911 117.709
1316 6.75 13.75 1.4 13.7137 -55.6002 103.592
1317 7 13.75 1.4 13.9597 -62.0856 57.2728
1318 7.25 13.75 1.4 14.2059 -62.3436 118.725
1319 7.5 13.75 1.4 14.4522 -61.9002 31.6437
1320 7.75 13.75 1.4 14.6987 -59.2995 61.81
1321 8 13.75 1.4 14.9453 -60.227 44.6992
1322 8.25 13.75 1.4 15.1919 -63.9966 35.6078
1323 8.5 13.75 1.4 15.4387 -64.4958 18.5847
1324 8.75 13.75 1.4 15.6856 -66.7153 4.78679
1325 9 13.75 1.4 15.9326 -59.9616 -11.8717
1326 9.25 13.75 1.4 16.1797 -60.6615 -17.7095
1327 9.5 13.75 1.4 16.4268 -60.6388 -14.1448
1328 9.75 13.75 1.4 16.6741 -62.7083 79.6321
1329 10 13.75 1.4 16.9214 -65.5964 142.986
1330 10.25 13.75 1.4 17.1688 -65.536 149.896
1331 10.5 13.75 1.4 17.4163 -75.3735 115.957
1332 10.75 13.75 1.4 17.6638 -66.2219 -71.67
1333 11 13.75 1.4 17.9114 -56.5758 -70.6272
1334 11.25 13.75 1.4 18.1591 -57.8587 -60.2127
1335 11.5 13.75 1.4 18.4069 -68.6916 -66.2323
1336 11.75 13.75 1.4 18.6547 -64.7394 -163.26
1337 12 13.75 1.4 18.9025 -60.0153 -168.72
1338 12.25 13.75 1.4 19.1505 -58.898 -177.68
1339 12.5 13.75 1.4 19.3984 -59.3412 173.407
1340 12.75 13.75 1.4 19.6465 -62.0653 -172.557
1341 13 13.75 1.4 19.8945 -76.566 -65.9227
1342 13.25 13.75 1.4 20.1427 -70.6639 -163.024
1343 13.5 13.75 1.4 20.3908 -74.8263 -124.915
1344 13.75 13.75 1.4 20.639 -76.5412 -124.035
1345 14 13.75 1.4 20.8873 -62.6539 -53.9665
1346 14.25 13.75 1.4 21.1356 -84.2163 38.0058
1347 14.5 13.75 1.4 21.3839 -93.3474 31.068
1348 14.75 13.75 1.4 21.6323 -77.4119 125.157
1349 15 13.75 1.4 21.8807 -84.3972 171.785
1350 15.25 13.75 1.4 22.1291 -85.6097 -166.623
1351 15.5 13.75 1.4 22.3776 -85.3049 -37.5184
1352 15.75 13.75 1.4 22.6261 -82.4912 132.678
1353 16 13.75 1.4 22.8747 -73.4902 121.352
1354 16.25 13.75 1.4 23.1233 -75.0441 150.711
1355 16.5 13.75 1.4 23.3719 -78.3675 120.917
1356 16.75 13.75 1.4 23.6205 -76.5489 177.835
1357 17 13.75 1.4 23.8692 -78.7154 -138.283
1358 17.25 13.75 1.4 24.1179 -96.4519 10.6901
1359 17.5 13.75 1.4 24.3666 -73.089 63.1562
1360 17.75 13.75 1.4 24.6153 -73.417 90.714
1361 18 13.75 1.4 24.8641 -74.1082 110.91
1362 18.25 13.75 1.4 25.1129 -75.3303 125.167
1363 18.5 13.75 1.4 25.3617 -74.8015 133.429
1364 18.75 13.75 1.4 25.6106 -75.868 146.552
1365 19 13.75 1.4 25.8594 -77.467 167.788
1366 19.25 13.75 1.4 26.1083 -77.2733 -168.402
1367 19.5 13.75 1.4 26.3572 -73.9609 -154.274
1368 19.75 13.75 1.4 26.6062 -73.618 -145.38
1369 20 13.75 1.4 26.8551 -74.6624 -140.683
1370 20.25 13.75 1.4 27.1041 -75.0519 -129.278
1371 20.5 13.75 1.4 27.3531 -74.6061 -117.323
1372 20.75 13.75 1.4 27.6021 -74.8737 -104.981
1373 21 13.75 1.4 27.8511 -73.5753 -85.0088
1374 21.25 13.75 1.4 28.1001 -66.6008 -147.526
1375 21.5 13.75 1.4 28.3492 -71.3925 -116.887
1376 21.75 13.75 1.4 28.5983 -72.3033 -113.427
1377 22 13.75 1.4 28.8474 -72.4441 -102.431
1378 22.25 13.75 1.4 29.0965 -73.0589 -95.7612
1379 22.5 13.75 1.4 29.3456 -73.7322 -91.1981
1380 22.75 13.75 1.4 29.5947 -72.5455 -30.8904
1381 23 13.75 1.4 29.8439 -75.5456 -6.64683
1382 23.25 13.75 1.4 30.093 -77.4064 10.3272
1383 23.5 13.75 1.4 30.3422 -77.9114 -25.6004
1384 23.75 13.75 1.4 30.5914 -79.2409 -19.007
1385 24 13.75 1.4 30.8406 -85.2136 -17.2787
1386 24.25 13.75 1.4 31.0898 -81.0705 -61.8573
1387 -7 14 1.4 2.2143 -39.9573 -70.6323
1388 -6.75 14 1.4 2.19937 -41.7271 -20.9629
1389 -6.5 14 1.4 2.21276 -43.1131 -59.7082
1390 -6.25 14 1.4 2.25398 -41.7036 179.242
1391 -6 14 1.4 2.32153 -43.7928 -11.9844
1392 -5.75 14 1.4 2.41321 -48.7515 84.7379
1393 -5.5 14 1.4 2.5264 -42.3439 108.167
1394 -5.25 14 1.4 2.65834 -41.8672 63.3767
1395 -5 14 1.4 2.8064 -45.7346 -12.886
1396 -4.75 14 1.4 2.96816 -43.4916 -141.808
1397 -4.5 14 1.4 3.1415 -50.4129 64.2584
1398 -4.25 14 1.4 3.32462 -50.4642 -111.22
1399 -4 14 1.4 3.51599 -46.5387 61.511
1400 -3.75 14 1.4 3.71434 -48.0283 -159.641
1401 -3.5 14 1.4 3.9186 -46.3487 -59.5526
1402 -3.25 14 1.4 4.12789 -46.8505 46.5049
1403 -3 14 1.4 4.34149 -47.7689 154.491
1404 -2.75 14 1.4 4.5588 -57.5941 -178.852
1405 -2.5 14 1.4 4.7793 -45.3723 -120.442
1406 -2.25 14 1.4 5.00258 -49.4365 -67.6565
1407 -2 14 1.4 5.22828 -49.2096 -14.2157
1408 -1.75 14 1.4 5.4561 -53.4916 39.4006
1409 -1.5 14 1.4 5.68578 -57.4661 67.2408
1410 -1.25 14 1.4 5.91711 -56.0879 -114.296
1411 -1 14 1.4 6.1499 -56.6396 -100.708
1412 -0.75 14 1.4 6.38399 -61.0893 -71.9678
1413 -0.5 14 1.4 6.61925 -57.3436 -72.5464
1414 -0.25 14 1.4 6.85555 -64.9822 -64.6146
1415 -1.77636e-15 14 1.4 7.09279 -53.3075 -155.753
1416 0.25 14 1.4 7.33088 -53.7825 -78.224
1417 0.5 14 1.4 7.56973 -49.7053 -92.6224
1418 0.75 14 1.4 7.80928 -56.7347 -109.688
1419 1 14 1.4 8.04947 -56.4039 -75.429
1420 1.25 14 1.4 8.29024 -69.8251 -160.679
1421 1.5 14 1.4 8.53154 -61.1845 171.234
1422 1.75 14 1.4 8.77333 -61.2648 69.097
1423 2 14 1.4 9.01556 -54.258 -56.6977
1424 2.25 14 1.4 9.25821 -56.4388 -80.3632
1425 2.5 14 1.4 9.50124 -61.7937 -1.16461
1426 2.75 14 1.4 9.74462 -55.1964 -41.0725
1427 3 14 1.4 9.98833 -57.0448 -23.5257
1428 3.25 14 1.4 10.2323 -56.5075 -42.8829
1429 3.5 14 1.4 10.4766 -70.6112 11.0896
1430 3.75 14 1.4 10.7212 -67.6185 94.5543
1431 4 14 1.4 10.966 -77.5486 -28.4624
1432 4.25 14 1.4 11.211 -70.204 72.0281
1433 4.5 14 1.4 11.4563 -76.5097 -73.1147
1434 4.75 14 1.4 11.7017 -75.996 -63.6438
1435 5 14 1.4 11.9474 -64.2465 41.9007
1436 5.25 14 1.4 12.1932 -71.5474 -133.76
1437 5.5 14 1.4 12.4392 -53.5521 -127.725
1438 5.75 14 1.4 12.6853 -55.1495 -66.3276
1439 6 14 1.4 12.9316 -60.962 74.9565
1440 6.25 14 1.4 13.178 -61.434 -158.642
1441 6.5 14 1.4 13.4246 -66.3383 -135.223
1442 6.75 14 1.4 13.6712 -66.4827 -97.2514
1443 7 14 1.4 13.9181 -61.045 107.828
1444 7.25 14 1.4 14.165 -77.4431 15.9588
1445 7.5 14 1.4 14.412 -63.7852 -141.447
1446 7.75 14 1.4 14.6591 -63.7616 130.407
1447 8 14 1.4 14.9063 -82.992 108.15
1448 8.25 14 1.4 15.1536 -80.5065 -47.5334
1449 8.5 14 1.4 15.401 -76.0373 147.363
1450 8.75 14 1.4 15.6485 -64.4792 -50.7403
1451 9 14 1.4 15.8961 -71.1511 -69.765
1452 9.25 14 1.4 16.1437 -71.5812 -29.104
1453 9.5 14 1.4 16.3914 -73.4344 43.3829
1454 9.75 14 1.4 16.6392 -68.5097 155.208
1455 10 14 1.4 16.887 -72.9657 -112.806
1456 10.25 14 1.4 17.1349 -64.7348 -100.786
1457 10.5 14 1.4 17.3829 -65.7024 -97.4285
1458 10.75 14 1.4 17.6309 -77.9306 28.9828
1459 11 14 1.4 17.879 -65.6792 70.2265
1460 11.25 14 1.4 18.1271 -59.4415 50.3361
1461 11.5 14 1.4 18.3753 -61.7204 83.3655
1462 11.75 14 1.4 18.6235 -60.5293 154.085
1463 12 14 1.4 18.8718 -57.8401 170.808
1464 12.25 14 1.4 19.1201 -71.3887 -178.886
1465 12.5 14 1.4 19.3685 -60.5249 -94.5195
1466 12.75 14 1.4 19.6169 -75.7029 17.4621
1467 13 14 1.4 19.8653 -72.0921 91.1274
1468 13.25 14 1.4 20.1138 -79.4267 44.1794
1469 13.5 14 1.4 20.3623 -72.7017 167.317
1470 13.75 14 1.4 20.6109 -71.8249 -86.1445
1471 14 14 1.4 20.8594 -68.3531 -46.7858
1472 14.25 14 1.4 21.1081 -68.4878 1.06485
1473 14.5 14 1.4 21.3567 -75.4499 27.9712
1474 14.75 14 1.4 21.6054 -76.1447 64.129
1475 15 14 1.4 21.8541 -75.4777 125.142
1476 15.25 14 1.4 22.1029 -76.2414 129.266
1477 15.5 14 1.4 22.3516 -75.9781 -167.348
1478 15.75 14 1.4 22.6004 -74.3878 -121.917
1479 16 14 1.4 22.8493 -80.7066 -112.053
1480 16.25 14 1.4 23.0981 -74.9055 -134.254
1481 16.5 14 1.4 23.347 -82.9222 -112.974
1482 16.75 14 1.4 23.5959 -90.3486 -4.20616
1483 17 14 1.4 23.8448 -76.9449 -32.6617
1484 17.25 14 1.4 24.0938 -79.2716 -32.1192
1485 17.5 14 1.4 24.3427 -75.8736 12.4007
1486 17.75 14 1.4 24.5917 -78.1282 30.9703
1487 18 14 1.4 24.8407 -85.527 85.8197
1488 18.25 14 1.4 25.0898 -77.3928 -89.1559
1489 18.5 14 1.4 25.3388 -76.023 -84.3174
1490 18.75 14 1.4 25.5879 -74.5173 -75.1814
1491 19 14 1.4 25.837 -74.7918 -52.3222
1492 19.25 14 1.4 26.0861 -73.4536 -47.1756
1493 19.5 14 1.4 26.3352 -75.2907 -12.1754
1494 19.75 14 1.4 26.5843 -75.4607 -3.4222
1495 20 14 1.4 26.8335 -77.9121 6.90916
1496 20.25 14 1.4 27.0826 -75.2039 40.3279
1497 20.5 14 1.4 27.3318 -75.1392 53.5458
1498 20.75 14 1.4 27.581 -76.3908 62.0068
1499 21 14 1.4 27.8302 -76.5157 76.9761
1500 21.25 14 1.4 28.0794 -74.3504 89.9501
1501 21.5 14 1.4 28.3287 -78.4633 104.609
1502 21.75 14 1.4 28.5779 -75.8686 116.458
1503 22 14 1.4 28.8272 -75.7872 129.002
1504 22.25 14 1.4 29.0765 -67.7439 35.8501
1505 22.5 14 1.4 29.3258 -73.7201 48.1512
1506 22.75 14 1.4 29.5751 -73.5625 67.8081
1507 23 14 1.4 29.8244 -71.2696 63.4346
1508 23.25 14 1.4 30.0737 -74.6738 -107
1509 23.5 14 1.4 30.323 -88.1407 -139.417
1510 23.75 14 1.4 30.5724 -77.3821 -31.9505
1511 24 14 1.4 30.8217 -92.3073 134.749
1512 24.25 14 1.4 31.0711 -83.849 -176.424
1513 -7 14.25 1.4 1.96621 -39.522 -59.6214
1514 -6.75 14.25 1.4 1.94937 -40.1212 -11.5964
1515 -6.5 14.25 1.4 1.96447 -39.5564 -45.429
1516 -6.25 14.25 1.4 2.01078 -40.4839 -167.012
1517 -6 14.25 1.4 2.08622 -45.6554 -53.709
1518 -5.75 14.25 1.4 2.18779 -41.6253 16.1509
1519 -5.5 14.25 1.4 2.31203 -44.9217 16.8623
1520 -5.25 14.25 1.4 2.45552 -43.464 -30.829
1521 -5 14.25 1.4 2.61509 -42.5923 -162.986
1522 -4.75 14.25 1.4 2.78797 -46.0684 45.0306
1523 -4.5 14.25 1.4 2.97184 -44.194 -125.534
1524 -4.25 14.25 1.4 3.1648 -46.4436 20.7316
1525 -4 14.25 1.4 3.36527 -46.474 133.593
1526 -3.75 14.25 1.4 3.57199 -45.0228 -108.472
1527 -3.5 14.25 1.4 3.78394 -47.272 -31.4592
1528 -3.25 14.25 1.4 4.00029 -51.6943 70.9372
1529 -3 14.25 1.4 4.22035 -45.5336 92.3749
1530 -2.75 14.25 1.4 4.44359 -51.0714 151.976
1531 -2.5 14.25 1.4 4.66954 -51.2092 -169.816
1532 -2.25 14.25 1.4 4.89782 -51.3845 -107.001
1533 -2 14.25 1.4 5.12813 -52.6033 -56.8289
1534 -1.75 14.25 1.4 5.36021 -55.6355 87.4385
1535 -1.5 14.25 1.4 5.59383 -61.036 100.684
1536 -1.25 14.25 1.4 5.82881 -58.6579 109.209
1537 -1 14.25 1.4 6.06499 -59.047 -179.069
1538 -0.75 14.25 1.4 6.30224 -54.0755 76.2224
1539 -0.5 14.25 1.4 6.54043 -52.4215 90.379
1540 -0.25 14.25 1.4 6.77948 -53.1591 107.41
1541 -1.77636e-15 14.25 1.4 7.01929 -54.7596 116.553
1542 0.25 14.25 1.4 7.25979 -50.835 128.915
1543 0.5 14.25 1.4 7.50091 -50.1992 113.822
1544 0.75 14.25 1.4 7.74259 -55.5701 122.854
1545 1 14.25 1.4 7.98479 -51.9633 123.76
1546 1.25 14.25 1.4 8.22745 -49.9266 113.776
1547 1.5 14.25 1.4 8.47054 -54.2729 80.8027
1548 1.75 14.25 1.4 8.71402 -53.6105 96.557
1549 2 14.25 1.4 8.95786 -57.5573 137.783
1550 2.25 14.25 1.4 9.20202 -63.0366 119.062
1551 2.5 14.25 1.4 9.4465 -62.0894 -66.659
1552 2.75 14.25 1.4 9.69126 -78.1124 -88.9383
1553 3 14.25 1.4 9.93627 -64.4395 -107.502
1554 3.25 14.25 1.4 10.1815 -55.1273 112.411
1555 3.5 14.25 1.4 10.427 -56.5177 92.9469
1556 3.75 14.25 1.4 10.6727 -56.8996 81.9923
1557 4 14.25 1.4 10.9186 -57.343 86.6153
1558 4.25 14.25 1.4 11.1647 -58.9149 40.6829
1559 4.5 14.25 1.4 11.4109 -56.1022 70.2184
1560 4.75 14.25 1.4 11.6573 -59.3293 39.4192
1561 5 14.25 1.4 11.9039 -56.3907 16.3623
1562 5.25 14.25 1.4 12.1506 -57.7626 36.3277
1563 5.5 14.25 1.4 12.3974 -57.8245 -26.3112
1564 5.75 14.25 1.4 12.6443 -54.3389 -23.7173
1565 6 14.25 1.4 12.8914 -55.9151 -2.28729
1566 6.25 14.25 1.4 13.1386 -59.5048 15.6431
1567 6.5 14.25 1.4 13.3859 -60.9723 -149.107
1568 6.75 14.25 1.4 13.6333 -63.394 1.98537
1569 7 14.25 1.4 13.8807 -63.7497 57.8918
1570 7.25 14.25 1.4 14.1283 -65.9558 154.014
1571 7.5 14.25 1.4 14.376 -64.4224 -37.6337
1572 7.75 14.25 1.4 14.6237 -60.8661 -72.4297
1573 8 14.25 1.4 14.8715 -68.1189 -98.4041
1574 8.25 14.25 1.4 15.1194 -67.521 -116.582
1575 8.5 14.25 1.4 15.3673 -60.4005 -99.1144
1576 8.75 14.25 1.4 15.6153 -65.8452 -134.233
1577 9 14.25 1.4 15.8634 -67.1828 -27.7526
1578 9.25 14.25 1.4 16.1115 -69.1966 17.9665
1579 9.5 14.25 1.4 16.3597 -74.2847 99.4952
1580 9.75 14.25 1.4 16.608 -68.4907 178.272
1581 10 14.25 1.4 16.8563 -65.6002 -143.71
1582 10.25 14.25 1.4 17.1046 -67.0181 -65.1679
1583 10.5 14.25 1.4 17.353 -65.0927 -31.4394
1584 10.75 14.25 1.4 17.6015 -70.989 6.07976
1585 11 14.25 1.4 17.8499 -70.5924 115.263
1586 11.25 14.25 1.4 18.0985 -64.3465 140.209
1587 11.5 14.25 1.4 18.347 -66.9163 160.316
1588 11.75 14.25 1.4 18.5956 -66.9036 -165.49
1589 12 14.25 1.4 18.8443 -59.0662 -91.7952
1590 12.25 14.25 1.4 19.093 -56.1951 -84.7159
1591 12.5 14.25 1.4 19.3417 -59.0632 -34.7111
1592 12.75 14.25 1.4 19.5904 -60.9602 12.3961
1593 13 14.25 1.4 19.8392 -59.7667 57.1529
1594 13.25 14.25 1.4 20.088 -69.8052 113.254
1595 13.5 14.25 1.4 20.3368 -69.2008 160.185
1596 13.75 14.25 1.4 20.5857 -71.0557 -169.144
1597 14 14.25 1.4 20.8346 -68.0301 -110.438
1598 14.25 14.25 1.4 21.0835 -81.9331 -96.2486
1599 14.5 14.25 1.4 21.3324 -80.3151 119.161
1600 14.75 14.25 1.4 21.5814 -77.1634 -168.192
1601 15 14.25 1.4 21.8304 -79.777 -165.204
1602 15.25 14.25 1.4 22.0794 -76.3877 -144.913
1603 15.5 14.25 1.4 22.3284 -78.8357 -121.68
1604 15.75 14.25 1.4 22.5775 -74.2518 -44.2173
1605 16 14.25 1.4 22.8266 -75.1163 3.04087
1606 16.25 14.25 1.4 23.0757 -78.2384 15.1572
1607 16.5 14.25 1.4 23.3248 -80.3259 60.4282
1608 16.75 14.25 1.4 23.5739 -80.3391 76.0966
1609 17 14.25 1.4 23.8231 -73.7222 103.583
1610 17.25 14.25 1.4 24.0722 -85.217 169.008
1611 17.5 14.25 1.4 24.3214 -83.0374 169.609
1612 17.75 14.25 1.4 24.5706 -80.6134 172.155
1613 18 14.25 1.4 24.8198 -77.9208 -154.838
1614 18.25 14.25 1.4 25.0691 -86.5086 -145.15
1615 18.5 14.25 1.4 25.3183 -88.7515 177.534
1616 18.75 14.25 1.4 25.5676 -87.4437 -179.506
1617 19 14.25 1.4 25.8169 -75.0979 84.7881
1618 19.25 14.25 1.4 26.0662 -73.6394 94.8782
1619 19.5 14.25 1.4 26.3155 -76.2828 109.728
1620 19.75 14.25 1.4 26.5648 -74.5537 130.888
1621 20 14.25 1.4 26.8141 -77.0434 128.204
1622 20.25 14.25 1.4 27.0635 -73.0803 149.629
1623 20.5 14.25 1.4 27.3128 -78.5145 174.421
1624 20.75 14.25 1.4 27.5622 -75.8603 170.127
1625 21 14.25 1.4 27.8116 -80.279 -163.448
1626 21.25 14.25 1.4 28.061 -79.6283 -164.459
1627 21.5 14.25 1.4 28.3104 -81.0671 -158.673
1628 21.75 14.25 1.4 28.5598 -83.4063 -144.758
1629 22 14.25 1.4 28.8092 -81.0287 -109.805
1630 22.25 14.25 1.4 29.0586 -79.9938 -93.5367
1631 22.5 14.25 1.4 29.3081 -79.7649 -70.6062
1632 22.75 14.25 1.4 29.5575 -80.1676 -55.0909
1633 23 14.25 1.4 29.807 -76.5044 -147.148
1634 23.25 14.25 1.4 30.0565 -75.6056 -141.562
1635 23.5 14.25 1.4 30.3059 -78.1673 -147.575
1636 23.75 14.25 1.4 30.5554 -84.0414 -122.068
1637 24 14.25 1.4 30.8049 -69.8503 -112.079
1638 24.25 14.25 1.4 31.0544 -70.7928 -113.215
