#Rx
# X(m), Y(m), Z(m), Distance(m), Power (dBm) Phase (deg)
1 -7 11.25 1.4 12.8912 -67.9786 -129.846
2 -6.75 11.25 1.4 12.6517 -68.3475 -168.469
3 -6.5 11.25 1.4 12.4127 -74.678 -141.488
4 -6.25 11.25 1.4 12.174 -61.5392 170.607
5 -6 11.25 1.4 11.9359 -64.225 116.109
6 -5.75 11.25 1.4 11.6982 -60.8609 154.537
7 -5.5 11.25 1.4 11.461 -66.3451 85.5246
8 -5.25 11.25 1.4 11.2244 -62.4219 116.071
9 -5 11.25 1.4 10.9884 -64.0958 61.7302
10 -4.75 11.25 1.4 10.7531 -59.2756 49.1309
11 -4.5 11.25 1.4 10.5184 -62.872 4.58797
12 -4.25 11.25 1.4 10.2844 -65.5378 3.38074
13 -4 11.25 1.4 10.0512 -62.4062 -97.1057
14 -3.75 11.25 1.4 9.81886 -59.5537 -107.293
15 -3.5 11.25 1.4 9.58737 -77.743 -85.5987
16 -3.25 11.25 1.4 9.35684 -58.6475 144.882
17 -3 11.25 1.4 9.12734 -61.9267 105.232
18 -2.75 11.25 1.4 8.89893 -64.976 17.7439
19 -2.5 11.25 1.4 8.67173 -59.5586 -27.4153
20 -2.25 11.25 1.4 8.4458 -72.0748 -18.4801
21 -2 11.25 1.4 8.22128 -63.5663 -177.377
22 -1.75 11.25 1.4 7.99826 -74.1271 88.3029
23 -1.5 11.25 1.4 7.77688 -68.4934 175.709
24 -1.25 11.25 1.4 7.5573 -61.8941 161.535
25 -1 11.25 1.4 7.33965 -60.2259 71.7455
26 -0.75 11.25 1.4 7.12413 -61.5337 -4.64927
27 -0.5 11.25 1.4 6.91094 -55.5013 -137.449
28 -0.25 11.25 1.4 6.70029 -51.0876 135.297
29 -1.77636e-15 11.25 1.4 6.49243 -51.7461 15.0675
30 0.25 11.25 1.4 6.28764 -54.6209 -130.316
31 0.5 11.25 1.4 6.08623 -52.0731 103.103
32 0.75 11.25 1.4 5.88854 -50.2466 -27.5657
33 1 11.25 1.4 5.69497 -52.3109 172.011
34 1.25 11.25 1.4 5.50595 -58.3968 -28.574
35 1.5 11.25 1.4 5.32196 -62.284 -179.544
36 1.75 11.25 1.4 5.14355 -56.2486 -1.21117
37 2 11.25 1.4 4.9713 -53.7894 175.229
38 2.25 11.25 1.4 4.8059 -50.986 -58.4045
39 2.5 11.25 1.4 4.64805 -57.6924 11.5597
40 2.75 11.25 1.4 4.49858 -56.9188 137.248
41 3 11.25 1.4 4.35832 -49.794 -145.518
42 3.25 11.25 1.4 4.22821 -46.7132 -156.477
43 3.5 11.25 1.4 4.1092 -46.8375 -176.588
44 3.75 11.25 1.4 4.00229 -49.3485 136.154
45 4 11.25 1.4 3.90846 -47.9555 36.3595
46 4.25 11.25 1.4 3.82869 -52.2703 -101.641
47 4.5 11.25 1.4 3.76386 -55.4096 81.8057
48 4.75 11.25 1.4 3.71476 -59.6686 12.9319
49 5 11.25 1.4 3.68201 -54.967 61.2067
50 5.25 11.25 1.4 3.66606 -50.2621 130.835
51 5.5 11.25 1.4 3.66712 -57.0166 65.8206
52 5.75 11.25 1.4 3.68518 -55.361 -44.1318
53 6 11.25 1.4 3.71999 -58.5251 82.9745
54 6.25 11.25 1.4 3.77109 -49.7767 -93.7892
55 6.5 11.25 1.4 3.83782 -46.1561 123.157
56 6.75 11.25 1.4 3.9194 -49.1999 -112.935
57 7 11.25 1.4 4.0149 -46.6841 -19.2869
58 7.25 11.25 1.4 4.12337 -45.2545 28.0886
59 7.5 11.25 1.4 4.24382 -46.36 67.1518
60 7.75 11.25 1.4 4.37525 -47.0893 50.9793
61 8 11.25 1.4 4.5167 -50.5524 -13.5362
62 8.25 11.25 1.4 4.66726 -50.2985 -98.5843
63 8.5 11.25 1.4 4.82609 -49.8765 -170.039
64 8.75 11.25 1.4 4.99238 -48.4124 59.383
65 9 11.25 1.4 5.16543 -48.7074 -79.1416
66 9.25 11.25 1.4 5.34457 -55.9392 171.875
67 9.5 11.25 1.4 5.52922 -60.0154 -8.91256
68 9.75 11.25 1.4 5.71883 -55.0305 75.0173
69 10 11.25 1.4 5.91293 -49.9087 -145.754
70 10.25 11.25 1.4 6.1111 -54.2096 -3.91222
71 10.5 11.25 1.4 6.31295 -56.5562 162.551
72 10.75 11.25 1.4 6.51814 -55.7431 -54.4394
73 11 11.25 1.4 6.72636 -52.8691 61.1429
74 11.25 11.25 1.4 6.93734 -54.8272 159.704
75 11.5 11.25 1.4 7.15084 -61.6458 -110.777
76 11.75 11.25 1.4 7.36663 -65.8107 32.8203
77 12 11.25 1.4 7.58453 -59.0316 82.4126
78 12.25 11.25 1.4 7.80435 -76.7667 117.53
79 12.5 11.25 1.4 8.02593 -68.7626 58.3024
80 12.75 11.25 1.4 8.24914 -72.2721 -103.974
81 13 11.25 1.4 8.47385 -62.1655 -154.599
82 13.25 11.25 1.4 8.69994 -69.6931 -50.581
83 13.5 11.25 1.4 8.9273 -63.4321 -49.634
84 13.75 11.25 1.4 9.15584 -63.2973 20.2208
85 14 11.25 1.4 9.38548 -63.6632 77.3827
86 14.25 11.25 1.4 9.61613 -60.7129 112.268
87 14.5 11.25 1.4 9.84773 -63.2845 -178.242
88 14.75 11.25 1.4 10.0802 -61.1991 -168.189
89 15 11.25 1.4 10.3135 -67.6736 -109.348
90 15.25 11.25 1.4 10.5476 -64.9651 -79.1381
91 15.5 11.25 1.4 10.7823 -63.805 -47.5156
92 15.75 11.25 1.4 11.0178 -68.0843 -60.7966
93 16 11.25 1.4 11.2539 -67.3931 25.9891
94 16.25 11.25 1.4 11.4905 -63.0527 10.8395
95 16.5 11.25 1.4 11.7277 -73.9555 92.5919
96 16.75 11.25 1.4 11.9655 -65.2066 58.834
97 17 11.25 1.4 12.2037 -69.1701 105.538
98 17.25 11.25 1.4 12.4424 -70.355 -178.188
99 17.5 11.25 1.4 12.6815 -68.6828 112.145
100 17.75 11.25 1.4 12.9211 -68.1507 -133.721
101 18 11.25 1.4 13.161 -65.6551 102.879
102 18.25 11.25 1.4 13.4013 -71.8904 -91.963
103 18.5 11.25 1.4 13.6419 -65.1711 114.956
104 18.75 11.25 1.4 13.8829 -67.4432 -94.0756
105 19 11.25 1.4 14.1242 -71.8311 29.4194
106 19.25 11.25 1.4 14.3658 -64.5156 149.162
107 19.5 11.25 1.4 14.6076 -67.3119 -13.9814
108 19.75 11.25 1.4 14.8498 -73.6364 87.2311
109 20 11.25 1.4 15.0922 -68.6559 147.64
110 20.25 11.25 1.4 15.3348 -72.9443 -59.6088
111 20.5 11.25 1.4 15.5777 -64.7383 106.28
112 20.75 11.25 1.4 15.8208 -73.0877 -157.971
113 21 11.25 1.4 16.0641 -66.5809 -79.3551
114 21.25 11.25 1.4 16.3076 -63.764 66.9991
115 21.5 11.25 1.4 16.5513 -70.8584 -145.058
116 21.75 11.25 1.4 16.7952 -74.5258 -147.574
117 22 11.25 1.4 17.0393 -63.8893 -14.2576
118 22.25 11.25 1.4 17.2835 -65.0329 127.033
119 22.5 11.25 1.4 17.5279 -64.8953 -80.2745
120 22.75 11.25 1.4 17.7724 -67.1871 124.624
121 23 11.25 1.4 18.0171 -68.2541 -32.5723
122 23.25 11.25 1.4 18.262 -65.558 107.083
123 23.5 11.25 1.4 18.507 -64.2298 -113.554
124 23.75 11.25 1.4 18.7521 -72.1344 25.3685
125 24 11.25 1.4 18.9973 -83.3995 -167.573
126 24.25 11.25 1.4 19.2427 -70.9761 73.5627
127 -7 11.5 1.4 12.8224 -63.3463 54.7767
128 -6.75 11.5 1.4 12.5816 -73.0352 -21.6257
129 -6.5 11.5 1.4 12.3412 -75.3637 98.0675
130 -6.25 11.5 1.4 12.1011 -60.2191 -25.8483
131 -6 11.5 1.4 11.8615 -64.8843 -122.065
132 -5.75 11.5 1.4 11.6223 -62.4367 -50.9897
133 -5.5 11.5 1.4 11.3836 -62.2063 -130.571
134 -5.25 11.5 1.4 11.1453 -64.2566 -97.379
135 -5 11.5 1.4 10.9076 -68.4748 160.037
136 -4.75 11.5 1.4 10.6705 -67.6777 -107.02
137 -4.5 11.5 1.4 10.4339 -69.0491 1.22893
138 -4.25 11.5 1.4 10.198 -65.2083 -112.444
139 -4 11.5 1.4 9.9628 -85.8591 -164.271
140 -3.75 11.5 1.4 9.72832 -67.8106 -124.856
141 -3.5 11.5 1.4 9.49463 -62.1023 -170.781
142 -3.25 11.5 1.4 9.26179 -63.3457 134.863
143 -3 11.5 1.4 9.02987 -60.1607 83.0301
144 -2.75 11.5 1.4 8.79894 -64.5846 4.74197
145 -2.5 11.5 1.4 8.56908 -61.1073 -41.7988
146 -2.25 11.5 1.4 8.34038 -56.5142 -111.478
147 -2 11.5 1.4 8.11293 -61.6183 174.431
148 -1.75 11.5 1.4 7.88685 -63.4847 40.5949
149 -1.5 11.5 1.4 7.66226 -65.2911 -92.7043
150 -1.25 11.5 1.4 7.43929 -58.3683 135.434
151 -1 11.5 1.4 7.21809 -58.2913 49.2398
152 -0.75 11.5 1.4 6.99883 -52.4811 -35.312
153 -0.5 11.5 1.4 6.78169 -53.2736 -157.225
154 -0.25 11.5 1.4 6.5669 -52.6044 95.0824
155 -1.77636e-15 11.5 1.4 6.35468 -59.8296 -10.1799
156 0.25 11.5 1.4 6.1453 -64.0214 19.7783
157 0.5 11.5 1.4 5.93906 -60.6537 -98.5452
158 0.75 11.5 1.4 5.73631 -55.3515 79.2125
159 1 11.5 1.4 5.53742 -51.3596 -54.6292
160 1.25 11.5 1.4 5.34283 -48.7927 144.252
161 1.5 11.5 1.4 5.15302 -53.493 -1.83506
162 1.75 11.5 1.4 4.96854 -55.6898 -164.715
163 2 11.5 1.4 4.79 -55.8547 -39.9497
164 2.25 11.5 1.4 4.61811 -57.5045 114.16
165 2.5 11.5 1.4 4.45362 -50.3777 -93.6958
166 2.75 11.5 1.4 4.29738 -48.3314 5.12927
167 3 11.5 1.4 4.15033 -51.6084 24.3039
168 3.25 11.5 1.4 4.01348 -56.3365 132.68
169 3.5 11.5 1.4 3.88791 -47.175 141.726
170 3.75 11.5 1.4 3.77473 -48.9505 114.485
171 4 11.5 1.4 3.6751 -49.7572 33.2056
172 4.25 11.5 1.4 3.59015 -48.1978 -77.4571
173 4.5 11.5 1.4 3.52093 -52.5895 127.004
174 4.75 11.5 1.4 3.46839 -53.5777 -71.3293
175 5 11.5 1.4 3.43329 -51.2609 33.6243
176 5.25 11.5 1.4 3.41618 -49.9865 101.997
177 5.5 11.5 1.4 3.41732 -50.3685 74.631
178 5.75 11.5 1.4 3.43669 -57.952 -6.81653
179 6 11.5 1.4 3.47399 -52.0914 153.321
180 6.25 11.5 1.4 3.52865 -53.7402 -23.1921
181 6.5 11.5 1.4 3.59988 -50.1424 114.744
182 6.75 11.5 1.4 3.68673 -46.0522 -124.004
183 7 11.5 1.4 3.7881 -45.9572 -51.6716
184 7.25 11.5 1.4 3.90288 -47.667 5.86685
185 7.5 11.5 1.4 4.02992 -51.0941 -52.0468
186 7.75 11.5 1.4 4.1681 -49.772 -74.9539
187 8 11.5 1.4 4.31635 -46.8471 -139.243
188 8.25 11.5 1.4 4.47366 -48.1662 130.199
189 8.5 11.5 1.4 4.63912 -50.2285 21.2373
190 8.75 11.5 1.4 4.81188 -50.7099 -113.313
191 9 11.5 1.4 4.99119 -51.7945 101.557
192 9.25 11.5 1.4 5.17636 -51.9498 -93.7501
193 9.5 11.5 1.4 5.3668 -53.9087 31.2921
194 9.75 11.5 1.4 5.56195 -52.2971 163.457
195 10 11.5 1.4 5.76134 -54.9479 4.5064
196 10.25 11.5 1.4 5.96455 -53.8682 -177.68
197 10.5 11.5 1.4 6.17119 -61.6172 -34.543
198 10.75 11.5 1.4 6.38094 -57.7663 -61.15
199 11 11.5 1.4 6.5935 -54.2201 12.0733
200 11.25 11.5 1.4 6.8086 -54.1291 131.98
201 11.5 11.5 1.4 7.02601 -57.1176 -113.568
202 11.75 11.5 1.4 7.24552 -55.3659 -23.869
203 12 11.5 1.4 7.46695 -60.69 71.8637
204 12.25 11.5 1.4 7.69013 -65.8445 145.848
205 12.5 11.5 1.4 7.91491 -69.0917 -44.2598
206 12.75 11.5 1.4 8.14117 -62.8592 106.351
207 13 11.5 1.4 8.36878 -70.7185 -179.331
208 13.25 11.5 1.4 8.59763 -57.9086 -125.539
209 13.5 11.5 1.4 8.82763 -63.4489 -67.3844
210 13.75 11.5 1.4 9.05868 -62.8404 -0.896158
211 14 11.5 1.4 9.29072 -59.6523 44.9808
212 14.25 11.5 1.4 9.52367 -68.9013 122.36
213 14.5 11.5 1.4 9.75746 -64.5481 115.524
214 14.75 11.5 1.4 9.99204 -72.6462 -89.6143
215 15 11.5 1.4 10.2273 -69.0608 -57.0143
216 15.25 11.5 1.4 10.4633 -67.5136 16.4199
217 15.5 11.5 1.4 10.7 -72.5536 101.074
218 15.75 11.5 1.4 10.9372 -63.507 81.7286
219 16 11.5 1.4 11.175 -75.1011 -134.976
220 16.25 11.5 1.4 11.4133 -64.2213 149.335
221 16.5 11.5 1.4 11.6521 -67.4166 -91.7488
222 16.75 11.5 1.4 11.8913 -66.94 -125.423
223 17 11.5 1.4 12.131 -70.8622 -122.102
224 17.25 11.5 1.4 12.3711 -78.0799 -0.808149
225 17.5 11.5 1.4 12.6116 -61.1661 -81.0799
226 17.75 11.5 1.4 12.8524 -63.0942 35.5796
227 18 11.5 1.4 13.0936 -77.7252 -92.6361
228 18.25 11.5 1.4 13.3351 -63.597 23.7197
229 18.5 11.5 1.4 13.5769 -68.5292 -145.042
230 18.75 11.5 1.4 13.819 -88.4886 90.5039
231 19 11.5 1.4 14.0614 -63.6152 121.718
232 19.25 11.5 1.4 14.3041 -66.2626 -64.5115
233 19.5 11.5 1.4 14.5469 -73.3791 80.3194
234 19.75 11.5 1.4 14.7901 -67.6672 108.801
235 20 11.5 1.4 15.0334 -67.745 -105.639
236 20.25 11.5 1.4 15.277 -64.5373 85.0597
237 20.5 11.5 1.4 15.5208 -68.9767 130.013
238 20.75 11.5 1.4 15.7648 -67.0215 -106.006
239 21 11.5 1.4 16.0089 -66.0179 26.929
240 21.25 11.5 1.4 16.2533 -70.8367 176.201
241 21.5 11.5 1.4 16.4978 -74.8233 128.017
242 21.75 11.5 1.4 16.7424 -63.7891 -70.2104
243 22 11.5 1.4 16.9872 -64.6285 78.35
244 22.25 11.5 1.4 17.2322 -68.2616 -96.9406
245 22.5 11.5 1.4 17.4773 -88.2834 137.041
246 22.75 11.5 1.4 17.7226 -64.1979 -73.4378
247 23 11.5 1.4 17.968 -63.4397 60.6871
248 23.25 11.5 1.4 18.2135 -65.4574 -148.398
249 23.5 11.5 1.4 18.4591 -71.5697 -37.456
250 23.75 11.5 1.4 18.7048 -70.3727 -124.42
251 24 11.5 1.4 18.9507 -71.2335 -53.7937
252 24.25 11.5 1.4 19.1967 -66.2723 100.846
253 -7 11.75 1.4 12.7581 -64.5657 -160.156
254 -6.75 11.75 1.4 12.5161 -62.6768 158.996
255 -6.5 11.75 1.4 12.2744 -77.2053 26.6455
256 -6.25 11.75 1.4 12.033 -63.4839 136.368
257 -6 11.75 1.4 11.792 -64.4388 -10.2787
258 -5.75 11.75 1.4 11.5513 -70.2385 102.127
259 -5.5 11.75 1.4 11.3111 -66.3427 4.47803
260 -5.25 11.75 1.4 11.0713 -65.5233 157.287
261 -5 11.75 1.4 10.832 -66.6791 -137.564
262 -4.75 11.75 1.4 10.5931 -61.9742 123.337
263 -4.5 11.75 1.4 10.3548 -65.4927 163.779
264 -4.25 11.75 1.4 10.1171 -60.9678 63.7964
265 -4 11.75 1.4 9.87991 -65.6638 56.1509
266 -3.75 11.75 1.4 9.64342 -69.3542 47.6736
267 -3.5 11.75 1.4 9.40762 -63.7912 -126.041
268 -3.25 11.75 1.4 9.17257 -70.2983 -2.65368
269 -3 11.75 1.4 8.93834 -64.4624 47.4298
270 -2.75 11.75 1.4 8.70498 -59.4432 11.9762
271 -2.5 11.75 1.4 8.47257 -57.5962 -84.8368
272 -2.25 11.75 1.4 8.24119 -57.8827 -157.278
273 -2 11.75 1.4 8.01093 -59.368 130.853
274 -1.75 11.75 1.4 7.78189 -60.9146 30.1081
275 -1.5 11.75 1.4 7.55417 -62.8264 -129.117
276 -1.25 11.75 1.4 7.32791 -59.0957 116.526
277 -1 11.75 1.4 7.10324 -54.022 8.77695
278 -0.75 11.75 1.4 6.88032 -54.461 -74.4552
279 -0.5 11.75 1.4 6.65933 -61.0375 -175.51
280 -0.25 11.75 1.4 6.44045 -74.3666 -67.5204
281 -1.77636e-15 11.75 1.4 6.22392 -57.946 94.9371
282 0.25 11.75 1.4 6.00999 -50.9965 -1.9519
283 0.5 11.75 1.4 5.79894 -51.7518 -133.72
284 0.75 11.75 1.4 5.59111 -61.0925 12.5365
285 1 11.75 1.4 5.38686 -57.7832 78.5417
286 1.25 11.75 1.4 5.18663 -55.4443 -131.185
287 1.5 11.75 1.4 4.99088 -52.589 108.585
288 1.75 11.75 1.4 4.80017 -52.013 -54.6988
289 2 11.75 1.4 4.61513 -52.7446 104.747
290 2.25 11.75 1.4 4.43646 -50.9632 -9.04577
291 2.5 11.75 1.4 4.26497 -50.9687 105.163
292 2.75 11.75 1.4 4.10156 -56.511 -162.069
293 3 11.75 1.4 3.94722 -49.2079 -38.263
294 3.25 11.75 1.4 3.80307 -50.8747 8.51062
295 3.5 11.75 1.4 3.6703 -53.2706 51.3657
296 3.75 11.75 1.4 3.55019 -48.0324 52.516
297 4 11.75 1.4 3.44408 -48.9452 8.02748
298 4.25 11.75 1.4 3.35327 -47.1917 -118.888
299 4.5 11.75 1.4 3.27906 -57.2812 -163.625
300 4.75 11.75 1.4 3.22258 -50.2456 -14.1038
301 5 11.75 1.4 3.18477 -48.32 63.467
302 5.25 11.75 1.4 3.16632 -47.6622 129.13
303 5.5 11.75 1.4 3.16754 -47.0048 103.176
304 5.75 11.75 1.4 3.18844 -49.0558 -107.377
305 6 11.75 1.4 3.22861 -62.5651 101.76
306 6.25 11.75 1.4 3.28735 -48.9411 -65.9199
307 6.5 11.75 1.4 3.3637 -45.057 96.0345
308 6.75 11.75 1.4 3.45648 -45.6609 -148.366
309 7 11.75 1.4 3.56441 -46.7121 -65.0878
310 7.25 11.75 1.4 3.68616 -52.9254 -106.403
311 7.5 11.75 1.4 3.82042 -44.6266 -147.464
312 7.75 11.75 1.4 3.9659 -45.438 -177.914
313 8 11.75 1.4 4.12142 -52.1801 104.356
314 8.25 11.75 1.4 4.2859 -49.2879 -27.2702
315 8.5 11.75 1.4 4.45833 -48.6106 -142.167
316 8.75 11.75 1.4 4.63783 -47.6207 46.9428
317 9 11.75 1.4 4.82361 -50.0531 -138.395
318 9.25 11.75 1.4 5.01498 -60.8565 17.0282
319 9.5 11.75 1.4 5.21132 -56.1242 121.653
320 9.75 11.75 1.4 5.41208 -52.909 -23.0457
321 10 11.75 1.4 5.61679 -61.5276 118.157
322 10.25 11.75 1.4 5.82504 -57.711 133.809
323 10.5 11.75 1.4 6.03647 -52.7311 -87.2359
324 10.75 11.75 1.4 6.25074 -58.6529 42.6321
325 11 11.75 1.4 6.46757 -66.7663 -65.2841
326 11.25 11.75 1.4 6.68672 -63.1483 2.84301
327 11.5 11.75 1.4 6.90797 -57.5825 -139.868
328 11.75 11.75 1.4 7.13112 -53.7358 -67.6965
329 12 11.75 1.4 7.35599 -58.1918 17.9843
330 12.25 11.75 1.4 7.58244 -63.0849 -177.663
331 12.5 11.75 1.4 7.81032 -68.0924 -90.2582
332 12.75 11.75 1.4 8.03952 -67.8038 39.5904
333 13 11.75 1.4 8.26993 -57.8184 152.186
334 13.25 11.75 1.4 8.50144 -63.2787 -163.382
335 13.5 11.75 1.4 8.73397 -64.0811 -84.1121
336 13.75 11.75 1.4 8.96744 -61.9355 -32.5057
337 14 11.75 1.4 9.20178 -73.4816 -172.771
338 14.25 11.75 1.4 9.43693 -77.536 66.4769
339 14.5 11.75 1.4 9.67282 -66.5644 -70.0767
340 14.75 11.75 1.4 9.9094 -64.4995 -74.2568
341 15 11.75 1.4 10.1466 -61.9616 -14.4037
342 15.25 11.75 1.4 10.3844 -65.8102 47.8655
343 15.5 11.75 1.4 10.6228 -61.2459 47.7947
344 15.75 11.75 1.4 10.8617 -72.8429 -139.934
345 16 11.75 1.4 11.1011 -62.6387 109.935
346 16.25 11.75 1.4 11.341 -63.8337 -94.3555
347 16.5 11.75 1.4 11.5813 -72.2267 -116.135
348 16.75 11.75 1.4 11.8219 -76.4247 -44.3265
349 17 11.75 1.4 12.063 -64.2748 43.94
350 17.25 11.75 1.4 12.3044 -79.7416 -77.8123
351 17.5 11.75 1.4 12.5462 -62.3212 38.0325
352 17.75 11.75 1.4 12.7883 -69.3239 -134.096
353 18 11.75 1.4 13.0306 -63.2217 48.111
354 18.25 11.75 1.4 13.2733 -63.4993 164.353
355 18.5 11.75 1.4 13.5162 -77.5283 -45.2141
356 18.75 11.75 1.4 13.7594 -67.1543 115.314
357 19 11.75 1.4 14.0028 -62.5103 -119.454
358 19.25 11.75 1.4 14.2464 -78.4939 -13.2009
359 19.5 11.75 1.4 14.4903 -72.4283 56.4454
360 19.75 11.75 1.4 14.7344 -62.4997 -125.505
361 20 11.75 1.4 14.9786 -67.7271 29.1656
362 20.25 11.75 1.4 15.2231 -74.2749 68.3244
363 20.5 11.75 1.4 15.4677 -67.2644 -167.079
364 20.75 11.75 1.4 15.7125 -67.723 -34.355
365 21 11.75 1.4 15.9575 -72.3878 44.648
366 21.25 11.75 1.4 16.2026 -71.4731 76.9981
367 21.5 11.75 1.4 16.4478 -59.488 -116.777
368 21.75 11.75 1.4 16.6932 -65.8069 49.3931
369 22 11.75 1.4 16.9388 -71.4229 -157.709
370 22.25 11.75 1.4 17.1844 -71.5969 119.261
371 22.5 11.75 1.4 17.4302 -64.221 -119.514
372 22.75 11.75 1.4 17.6761 -63.9519 21.9408
373 23 11.75 1.4 17.9221 -65.6143 148.72
374 23.25 11.75 1.4 18.1683 -86.4828 78.2519
375 23.5 11.75 1.4 18.4145 -68.9809 176.778
376 23.75 11.75 1.4 18.6608 -66.9302 -64.8928
377 24 11.75 1.4 18.9072 -64.5802 41.3445
378 24.25 11.75 1.4 19.1538 -72.2088 110.95
379 -7 12 1.4 12.6984 -62.6842 -114.485
380 -6.75 12 1.4 12.4552 -85.9773 -28.3994
381 -6.5 12 1.4 12.2123 -87.0929 -66.3646
382 -6.25 12 1.4 11.9697 -74.4837 -2.21356
383 -6 12 1.4 11.7274 -63.7764 92.3846
384 -5.75 12 1.4 11.4854 -64.0906 17.6073
385 -5.5 12 1.4 11.2437 -66.8683 48.9906
386 -5.25 12 1.4 11.0025 -61.435 -55.6518
387 -5 12 1.4 10.7616 -73.3219 -91.8438
388 -4.75 12 1.4 10.5212 -60.3113 -109.559
389 -4.5 12 1.4 10.2812 -66.4661 65.0199
390 -4.25 12 1.4 10.0417 -73.2138 -152.464
391 -4 12 1.4 9.8027 -64.2448 -26.228
392 -3.75 12 1.4 9.5643 -58.6515 -77.7765
393 -3.5 12 1.4 9.3265 -64.8937 -11.7632
394 -3.25 12 1.4 9.08935 -59.069 -155.611
395 -3 12 1.4 8.85292 -68.5951 99.6378
396 -2.75 12 1.4 8.61724 -61.9383 -42.9406
397 -2.5 12 1.4 8.3824 -61.9266 -112.707
398 -2.25 12 1.4 8.14846 -57.5225 173.979
399 -2 12 1.4 7.91551 -56.3551 75.755
400 -1.75 12 1.4 7.68362 -61.0977 1.02661
401 -1.5 12 1.4 7.45291 -62.5225 164.504
402 -1.25 12 1.4 7.22347 -57.8291 43.1048
403 -1 12 1.4 6.99545 -55.8068 -45.9462
404 -0.75 12 1.4 6.76898 -62.0464 -104.592
405 -0.5 12 1.4 6.54423 -63.4881 -80.061
406 -0.25 12 1.4 6.32137 -55.5658 -179.385
407 -1.77636e-15 12 1.4 6.10061 -55.0146 47.3994
408 0.25 12 1.4 5.8822 -57.8959 -29.6791
409 0.5 12 1.4 5.6664 -61.6907 -72.0165
410 0.75 12 1.4 5.45351 -51.8742 -169.398
411 1 12 1.4 5.24391 -60.2128 76.7214
412 1.25 12 1.4 5.03799 -57.125 -15.3141
413 1.5 12 1.4 4.83623 -56.9241 -159.093
414 1.75 12 1.4 4.63917 -52.965 38.9437
415 2 12 1.4 4.44744 -55.5182 -81.2328
416 2.25 12 1.4 4.26175 -48.8747 87.705
417 2.5 12 1.4 4.08292 -52.7207 -109.491
418 2.75 12 1.4 3.91191 -48.0757 60.0386
419 3 12 1.4 3.74978 -56.1705 149.119
420 3.25 12 1.4 3.59772 -50.3907 -71.5678
421 3.5 12 1.4 3.45708 -47.6787 -57.2259
422 3.75 12 1.4 3.32929 -50.2837 -38.9325
423 4 12 1.4 3.21589 -48.4863 -24.5579
424 4.25 12 1.4 3.11845 -46.7629 -141.617
425 4.5 12 1.4 3.0385 -52.1755 150.444
426 4.75 12 1.4 2.97746 -47.7761 -43.6681
427 5 12 1.4 2.93651 -46.2196 63.0296
428 5.25 12 1.4 2.91648 -44.81 130.064
429 5.5 12 1.4 2.91781 -44.9478 100.298
430 5.75 12 1.4 2.94048 -45.541 -82.4839
431 6 12 1.4 2.98399 -52.1609 -145.729
432 6.25 12 1.4 3.04745 -51.129 -67.3745
433 6.5 12 1.4 3.12966 -45.381 84.0705
434 6.75 12 1.4 3.22917 -48.8797 161.809
435 7 12 1.4 3.34444 -56.3146 163.645
436 7.25 12 1.4 3.47391 -44.7308 171.5
437 7.5 12 1.4 3.61606 -48.1265 167.841
438 7.75 12 1.4 3.76944 -47.7275 36.3455
439 8 12 1.4 3.93274 -45.65 -56.2664
440 8.25 12 1.4 4.10478 -51.469 -179.968
441 8.5 12 1.4 4.2845 -50.7513 -2.57193
442 8.75 12 1.4 4.47099 -53.828 -139.089
443 9 12 1.4 4.66343 -57.4739 -10.5065
444 9.25 12 1.4 4.8611 -54.7152 142.615
445 9.5 12 1.4 5.06341 -53.4811 -81.779
446 9.75 12 1.4 5.26981 -57.5724 31.6904
447 10 12 1.4 5.47984 -60.1999 73.388
448 10.25 12 1.4 5.6931 -54.3186 -132.068
449 10.5 12 1.4 5.90925 -66.3195 80.3653
450 10.75 12 1.4 6.12797 -57.1817 -52.1846
451 11 12 1.4 6.349 -55.9424 108.761
452 11.25 12 1.4 6.5721 -58.8715 -136.542
453 11.5 12 1.4 6.79708 -65.7673 142.028
454 11.75 12 1.4 7.02375 -56.3217 -129.301
455 12 12 1.4 7.25196 -58.2307 -27.8497
456 12.25 12 1.4 7.48156 -63.9902 82.3313
457 12.5 12 1.4 7.71242 -60.3484 -93.3539
458 12.75 12 1.4 7.94445 -59.7634 0.103223
459 13 12 1.4 8.17753 -60.9764 69.379
460 13.25 12 1.4 8.41159 -63.2773 136.518
461 13.5 12 1.4 8.64654 -69.696 -38.9697
462 13.75 12 1.4 8.88231 -67.7165 60.5993
463 14 12 1.4 9.11883 -72.5871 95.8777
464 14.25 12 1.4 9.35606 -61.4819 -157.604
465 14.5 12 1.4 9.59394 -62.39 -144.653
466 14.75 12 1.4 9.83242 -64.9195 -78.2572
467 15 12 1.4 10.0715 -74.2658 -107.681
468 15.25 12 1.4 10.311 -67.3133 12.771
469 15.5 12 1.4 10.5511 -62.7623 -154.05
470 15.75 12 1.4 10.7916 -68.7272 98.5343
471 16 12 1.4 11.0325 -65.1162 -99.1459
472 16.25 12 1.4 11.2738 -68.6716 160.179
473 16.5 12 1.4 11.5155 -65.7993 -64.8787
474 16.75 12 1.4 11.7575 -65.0059 38.7662
475 17 12 1.4 11.9999 -70.2674 147.603
476 17.25 12 1.4 12.2425 -68.442 68.8816
477 17.5 12 1.4 12.4855 -63.9375 162.329
478 17.75 12 1.4 12.7287 -76.4569 -11.5146
479 18 12 1.4 12.9722 -65.888 164.56
480 18.25 12 1.4 13.2159 -73.1997 -113.098
481 18.5 12 1.4 13.4599 -71.7192 -3.71677
482 18.75 12 1.4 13.704 -64.8032 -121.678
483 19 12 1.4 13.9484 -74.0266 -29.1121
484 19.25 12 1.4 14.193 -64.4059 4.23174
485 19.5 12 1.4 14.4378 -71.0543 -173.938
486 19.75 12 1.4 14.6827 -68.3839 2.2927
487 20 12 1.4 14.9278 -69.2616 27.6076
488 20.25 12 1.4 15.1731 -70.742 103.406
489 20.5 12 1.4 15.4185 -66.276 -91.1622
490 20.75 12 1.4 15.6641 -75.3936 44.8224
491 21 12 1.4 15.9098 -67.9049 17.183
492 21.25 12 1.4 16.1556 -62.8584 -153.832
493 21.5 12 1.4 16.4016 -71.3319 39.538
494 21.75 12 1.4 16.6477 -68.6697 -129.59
495 22 12 1.4 16.8938 -79.2456 90.7105
496 22.25 12 1.4 17.1402 -62.6057 -166.413
497 22.5 12 1.4 17.3866 -64.6379 -36.4352
498 22.75 12 1.4 17.6331 -66.7414 113.087
499 23 12 1.4 17.8797 -90.3486 82.4715
500 23.25 12 1.4 18.1264 -65.0035 113.885
501 23.5 12 1.4 18.3732 -66.3704 -139.002
502 23.75 12 1.4 18.6201 -68.1255 -1.35473
503 24 12 1.4 18.867 -69.854 103.712
504 24.25 12 1.4 19.1141 -76.6921 97.6203
505 -7 12.25 1.4 12.6434 -62.83 13.388
506 -6.75 12.25 1.4 12.3991 -63.2987 -112.905
507 -6.5 12.25 1.4 12.1551 -79.863 -47.541
508 -6.25 12.25 1.4 11.9113 -70.2551 -135.166
509 -6 12.25 1.4 11.6677 -65.4675 164.098
510 -5.75 12.25 1.4 11.4245 -62.5779 161.965
511 -5.5 12.25 1.4 11.1815 -78.5861 161.108
512 -5.25 12.25 1.4 10.9389 -64.4135 17.4445
513 -5 12.25 1.4 10.6966 -61.2639 -84.0955
514 -4.75 12.25 1.4 10.4547 -72.5774 90.5461
515 -4.5 12.25 1.4 10.2131 -58.9961 -167.61
516 -4.25 12.25 1.4 9.97199 -60.0463 67.9923
517 -4 12.25 1.4 9.7313 -68.6184 72.9318
518 -3.75 12.25 1.4 9.49111 -63.4977 0.433497
519 -3.5 12.25 1.4 9.25142 -59.1394 -167.226
520 -3.25 12.25 1.4 9.0123 -66.2594 130.53
521 -3 12.25 1.4 8.77379 -58.2383 74.3562
522 -2.75 12.25 1.4 8.53594 -60.1459 22.364
523 -2.5 12.25 1.4 8.29879 -63.599 -151.241
524 -2.25 12.25 1.4 8.06243 -59.5115 101.716
525 -2 12.25 1.4 7.82691 -57.9705 20.0177
526 -1.75 12.25 1.4 7.59232 -65.7812 -78.4269
527 -1.5 12.25 1.4 7.35874 -60.1619 85.3762
528 -1.25 12.25 1.4 7.12628 -59.7407 -34.7186
529 -1 12.25 1.4 6.89505 -56.6592 -152.861
530 -0.75 12.25 1.4 6.66517 -90.2083 -90.2184
531 -0.5 12.25 1.4 6.43679 -58.2242 -140.996
532 -0.25 12.25 1.4 6.21007 -56.2677 96.64
533 -1.77636e-15 12.25 1.4 5.98521 -62.6515 -123.233
534 0.25 12.25 1.4 5.76243 -56.7176 21.5922
535 0.5 12.25 1.4 5.54196 -52.5485 -126.844
536 0.75 12.25 1.4 5.32411 -55.5253 -156.447
537 1 12.25 1.4 5.1092 -56.5916 130.686
538 1.25 12.25 1.4 4.89762 -54.4943 44.5277
539 1.5 12.25 1.4 4.68982 -55.136 -71.7319
540 1.75 12.25 1.4 4.48634 -53.2377 -160.022
541 2 12.25 1.4 4.28777 -53.2936 63.6576
542 2.25 12.25 1.4 4.09485 -50.5176 -129.628
543 2.5 12.25 1.4 3.9084 -56.8161 88.3664
544 2.75 12.25 1.4 3.72939 -53.7577 -129.721
545 3 12.25 1.4 3.55895 -48.5865 23.3752
546 3.25 12.25 1.4 3.39837 -48.4299 112.894
547 3.5 12.25 1.4 3.2491 -51.3061 -126.095
548 3.75 12.25 1.4 3.11279 -47.0962 -110.821
549 4 12.25 1.4 2.99119 -53.0207 -107.72
550 4.25 12.25 1.4 2.88618 -46.666 -157.78
551 4.5 12.25 1.4 2.79961 -58.2173 117.147
552 4.75 12.25 1.4 2.73324 -48.8282 -21.8894
553 5 12.25 1.4 2.68856 -45.3639 88.1325
554 5.25 12.25 1.4 2.66667 -43.9373 153.119
555 5.5 12.25 1.4 2.66813 -45.436 121.709
556 5.75 12.25 1.4 2.6929 -49.4255 -113.834
557 6 12.25 1.4 2.74034 -59.2134 165.175
558 6.25 12.25 1.4 2.80932 -45.5536 -66.715
559 6.5 12.25 1.4 2.89828 -45.1144 59.0104
560 6.75 12.25 1.4 3.00546 -49.3115 116.652
561 7 12.25 1.4 3.12899 -46.7407 77.2056
562 7.25 12.25 1.4 3.26701 -46.2395 85.9374
563 7.5 12.25 1.4 3.41777 -46.4884 -16.0161
564 7.75 12.25 1.4 3.57965 -46.4826 -71.4286
565 8 12.25 1.4 3.75123 -51.6582 108.602
566 8.25 12.25 1.4 3.93122 -47.6184 1.48941
567 8.5 12.25 1.4 4.11853 -51.7512 156.167
568 8.75 12.25 1.4 4.3122 -50.2036 -9.08588
569 9 12.25 1.4 4.51141 -58.3078 79.5553
570 9.25 12.25 1.4 4.71546 -52.9596 -161.43
571 9.5 12.25 1.4 4.92376 -58.0597 -35.1867
572 9.75 12.25 1.4 5.13577 -63.2751 3.7593
573 10 12.25 1.4 5.35107 -61.3417 134.709
574 10.25 12.25 1.4 5.56927 -61.3789 105.875
575 10.5 12.25 1.4 5.79003 -55.6073 -86.9155
576 10.75 12.25 1.4 6.01309 -60.4948 138.638
577 11 12.25 1.4 6.23819 -57.7236 -18.7919
578 11.25 12.25 1.4 6.46513 -54.232 117.164
579 11.5 12.25 1.4 6.6937 -64.4944 -172.835
580 11.75 12.25 1.4 6.92376 -56.682 120.686
581 12 12.25 1.4 7.15515 -60.5455 -119.508
582 12.25 12.25 1.4 7.38776 -61.8322 21.0945
583 12.5 12.25 1.4 7.62147 -61.5694 149.037
584 12.75 12.25 1.4 7.85618 -59.3762 -46.0808
585 13 12.25 1.4 8.0918 -59.5526 6.89264
586 13.25 12.25 1.4 8.32827 -88.9622 -161.249
587 13.5 12.25 1.4 8.5655 -70.9933 -99.151
588 13.75 12.25 1.4 8.80344 -63.6082 -5.10817
589 14 12.25 1.4 9.04204 -63.6578 69.3306
590 14.25 12.25 1.4 9.28123 -67.8965 137.739
591 14.5 12.25 1.4 9.52098 -64.1413 -72.929
592 14.75 12.25 1.4 9.76124 -74.2481 3.81813
593 15 12.25 1.4 10.002 -60.7336 7.50625
594 15.25 12.25 1.4 10.2432 -64.6361 145.669
595 15.5 12.25 1.4 10.4848 -64.0806 54.5403
596 15.75 12.25 1.4 10.7267 -61.4806 -133.502
597 16 12.25 1.4 10.9691 -80.9796 -155.802
598 16.25 12.25 1.4 11.2118 -63.6607 -34.4456
599 16.5 12.25 1.4 11.4547 -63.7658 20.1312
600 16.75 12.25 1.4 11.698 -81.1369 75.393
601 17 12.25 1.4 11.9416 -80.5516 122.938
602 17.25 12.25 1.4 12.1854 -65.2644 165.686
603 17.5 12.25 1.4 12.4295 -64.5069 -101.106
604 17.75 12.25 1.4 12.6738 -69.379 174.644
605 18 12.25 1.4 12.9183 -67.7163 -114.835
606 18.25 12.25 1.4 13.163 -62.6941 -13.9005
607 18.5 12.25 1.4 13.408 -67.1122 160.653
608 18.75 12.25 1.4 13.6531 -79.7659 -15.5976
609 19 12.25 1.4 13.8983 -66.5007 31.1466
610 19.25 12.25 1.4 14.1438 -63.9053 121.907
611 19.5 12.25 1.4 14.3894 -69.4753 -33.5277
612 19.75 12.25 1.4 14.6351 -73.6351 63.4113
613 20 12.25 1.4 14.881 -64.8465 101.83
614 20.25 12.25 1.4 15.1271 -68.6192 -131.732
615 20.5 12.25 1.4 15.3732 -79.8936 12.8802
616 20.75 12.25 1.4 15.6195 -65.5762 -24.5316
617 21 12.25 1.4 15.8659 -65.9244 163.43
618 21.25 12.25 1.4 16.1124 -65.7191 -60.0633
619 21.5 12.25 1.4 16.359 -73.1661 -122.163
620 21.75 12.25 1.4 16.6057 -70.201 17.0513
621 22 12.25 1.4 16.8525 -71.6674 166.76
622 22.25 12.25 1.4 17.0994 -61.088 -89.8244
623 22.5 12.25 1.4 17.3464 -71.5568 -11.7896
624 22.75 12.25 1.4 17.5935 -65.4292 -61.2989
625 23 12.25 1.4 17.8406 -72.4124 56.0898
626 23.25 12.25 1.4 18.0879 -62.6955 -152.956
627 23.5 12.25 1.4 18.3352 -65.9379 -98.7591
628 23.75 12.25 1.4 18.5826 -73.051 -98.1473
629 24 12.25 1.4 18.83 -75.5618 81.1551
630 24.25 12.25 1.4 19.0775 -70.8534 141.699
631 -7 12.5 1.4 12.5931 -76.546 -177.382
632 -6.75 12.5 1.4 12.3478 -64.0503 3.17088
633 -6.5 12.5 1.4 12.1027 -80.3055 -107.594
634 -6.25 12.5 1.4 11.8578 -66.5761 -23.6686
635 -6 12.5 1.4 11.6132 -64.0407 -119.583
636 -5.75 12.5 1.4 11.3688 -65.7082 115.71
637 -5.5 12.5 1.4 11.1246 -65.8694 86.4108
638 -5.25 12.5 1.4 10.8807 -65.8601 2.02921
639 -5 12.5 1.4 10.6371 -59.4666 -7.83877
640 -4.75 12.5 1.4 10.3938 -56.9044 -128.502
641 -4.5 12.5 1.4 10.1508 -68.7711 17.5196
642 -4.25 12.5 1.4 9.90812 -62.9907 129.928
643 -4 12.5 1.4 9.66585 -57.6763 19.3287
644 -3.75 12.5 1.4 9.42398 -67.6221 -134.999
645 -3.5 12.5 1.4 9.18255 -61.5206 -111.017
646 -3.25 12.5 1.4 8.94158 -64.9958 160.594
647 -3 12.5 1.4 8.70113 -59.7233 -9.71491
648 -2.75 12.5 1.4 8.46123 -60.5879 -78.5075
649 -2.5 12.5 1.4 8.22194 -62.7173 -174.207
650 -2.25 12.5 1.4 7.9833 -72.2601 14.0176
651 -2 12.5 1.4 7.74537 -57.1208 -79.0014
652 -1.75 12.5 1.4 7.50824 -58.004 -178.399
653 -1.5 12.5 1.4 7.27196 -65.9354 -35.0003
654 -1.25 12.5 1.4 7.03663 -56.8096 -135.87
655 -1 12.5 1.4 6.80235 -60.3153 114.357
656 -0.75 12.5 1.4 6.56922 -67.4076 -143.002
657 -0.5 12.5 1.4 6.33739 -55.9139 113.1
658 -0.25 12.5 1.4 6.10699 -68.6005 -16.193
659 -1.77636e-15 12.5 1.4 5.87818 -55.425 73.1547
660 0.25 12.5 1.4 5.65118 -56.7472 -91.065
661 0.5 12.5 1.4 5.4262 -57.7005 -78.6534
662 0.75 12.5 1.4 5.2035 -60.628 179.764
663 1 12.5 1.4 4.98339 -56.1933 129.212
664 1.25 12.5 1.4 4.76623 -54.2346 54.2293
665 1.5 12.5 1.4 4.55244 -58.6906 -40.7667
666 1.75 12.5 1.4 4.34252 -50.1292 -121.406
667 2 12.5 1.4 4.13706 -54.1679 123.574
668 2.25 12.5 1.4 3.93676 -48.7758 -13.0355
669 2.5 12.5 1.4 3.74244 -47.7099 -141.543
670 2.75 12.5 1.4 3.55508 -53.6895 39.3298
671 3 12.5 1.4 3.37586 -48.8449 -168.302
672 3.25 12.5 1.4 3.20612 -50.6305 16.0197
673 3.5 12.5 1.4 3.04745 -49.3518 83.3481
674 3.75 12.5 1.4 2.90168 -47.0246 161.722
675 4 12.5 1.4 2.77083 -49.152 156.139
676 4.25 12.5 1.4 2.65712 -43.2171 171.652
677 4.5 12.5 1.4 2.56283 -53.1062 66.68
678 4.75 12.5 1.4 2.49015 -46.599 -40.8385
679 5 12.5 1.4 2.44103 -45.1644 79.1501
680 5.25 12.5 1.4 2.4169 -43.875 160.388
681 5.5 12.5 1.4 2.41851 -44.9114 129.447
682 5.75 12.5 1.4 2.44581 -49.8701 -83.671
683 6 12.5 1.4 2.49795 -50.8745 102.433
684 6.25 12.5 1.4 2.57343 -44.7772 -69.9679
685 6.5 12.5 1.4 2.67027 -47.0791 19.7057
686 6.75 12.5 1.4 2.78623 -46.2266 15.5267
687 7 12.5 1.4 2.91905 -42.4702 15.3876
688 7.25 12.5 1.4 3.06654 -47.4066 -57.5565
689 7.5 12.5 1.4 3.22668 -44.8266 -120.462
690 7.75 12.5 1.4 3.39768 -44.3227 83.2027
691 8 12.5 1.4 3.57799 -49.9367 -39.0153
692 8.25 12.5 1.4 3.76627 -48.7603 109.357
693 8.5 12.5 1.4 3.96138 -56.0513 -129.326
694 8.75 12.5 1.4 4.16237 -50.4995 31.8551
695 9 12.5 1.4 4.36842 -55.1202 125.71
696 9.25 12.5 1.4 4.57885 -63.3364 -141.327
697 9.5 12.5 1.4 4.79309 -59.9921 -33.0153
698 9.75 12.5 1.4 5.01063 -62.7007 28.9555
699 10 12.5 1.4 5.23108 -62.8234 70.1779
700 10.25 12.5 1.4 5.45408 -62.1644 -153.175
701 10.5 12.5 1.4 5.67933 -58.4574 122.86
702 10.75 12.5 1.4 5.90657 -56.9262 -60.1836
703 11 12.5 1.4 6.13558 -65.3701 135.017
704 11.25 12.5 1.4 6.36617 -53.7996 6.58339
705 11.5 12.5 1.4 6.59817 -60.4533 107.615
706 11.75 12.5 1.4 6.83145 -62.6556 33.4517
707 12 12.5 1.4 7.06587 -56.2841 137.953
708 12.25 12.5 1.4 7.30132 -69.0552 -46.092
709 12.5 12.5 1.4 7.53771 -57.5697 90.1507
710 12.75 12.5 1.4 7.77495 -57.4749 -169.98
711 13 12.5 1.4 8.01296 -68.6356 -84.4479
712 13.25 12.5 1.4 8.25169 -62.2951 110.653
713 13.5 12.5 1.4 8.49106 -61.601 -139.753
714 13.75 12.5 1.4 8.73103 -65.7447 -102.992
715 14 12.5 1.4 8.97155 -70.3095 66.0186
716 14.25 12.5 1.4 9.21257 -68.4146 -178.438
717 14.5 12.5 1.4 9.45406 -65.6641 172.89
718 14.75 12.5 1.4 9.69598 -63.6539 -48.5725
719 15 12.5 1.4 9.9383 -63.1093 119.488
720 15.25 12.5 1.4 10.181 -64.5174 12.3082
721 15.5 12.5 1.4 10.424 -59.0386 166.382
722 15.75 12.5 1.4 10.6674 -80.9813 82.3021
723 16 12.5 1.4 10.911 -64.3405 -62.1463
724 16.25 12.5 1.4 11.155 -66.6468 -20.3705
725 16.5 12.5 1.4 11.3992 -67.3217 62.8273
726 16.75 12.5 1.4 11.6436 -70.8981 -172.398
727 17 12.5 1.4 11.8883 -72.4981 144.102
728 17.25 12.5 1.4 12.1332 -62.3856 -106.55
729 17.5 12.5 1.4 12.3783 -67.0285 -25.8427
730 17.75 12.5 1.4 12.6236 -65.9435 -117.477
731 18 12.5 1.4 12.8691 -61.4867 -44.7579
732 18.25 12.5 1.4 13.1147 -66.5944 116.004
733 18.5 12.5 1.4 13.3605 -77.6424 158.416
734 18.75 12.5 1.4 13.6065 -68.9115 -122.07
735 19 12.5 1.4 13.8526 -62.8151 115.201
736 19.25 12.5 1.4 14.0988 -69.7706 -144.23
737 19.5 12.5 1.4 14.3452 -68.2578 -138.066
738 19.75 12.5 1.4 14.5917 -67.3191 49.4563
739 20 12.5 1.4 14.8383 -66.3169 177.438
740 20.25 12.5 1.4 15.085 -80.525 -103.998
741 20.5 12.5 1.4 15.3319 -64.8265 -56.6421
742 20.75 12.5 1.4 15.5788 -61.9641 108.14
743 21 12.5 1.4 15.8258 -89.3659 -108.543
744 21.25 12.5 1.4 16.0729 -69.3891 114.928
745 21.5 12.5 1.4 16.3201 -63.9776 -21.7582
746 21.75 12.5 1.4 16.5674 -59.332 82.6583
747 22 12.5 1.4 16.8148 -71.9009 -162.705
748 22.25 12.5 1.4 17.0623 -62.7192 43.9694
749 22.5 12.5 1.4 17.3098 -66.2908 -103.851
750 22.75 12.5 1.4 17.5574 -60.6674 11.5871
751 23 12.5 1.4 17.805 -65.8806 99.3661
752 23.25 12.5 1.4 18.0527 -69.6936 -149.734
753 23.5 12.5 1.4 18.3005 -73.3165 -97.5815
754 23.75 12.5 1.4 18.5484 -74.3502 -21.694
755 24 12.5 1.4 18.7963 -81.4243 -14.9155
756 24.25 12.5 1.4 19.0442 -70.263 65.9603
757 -7 12.75 1.4 12.5475 -64.8649 75.1453
758 -6.75 12.75 1.4 12.3014 -63.9387 70.7154
759 -6.5 12.75 1.4 12.0553 -69.4941 -66.838
760 -6.25 12.75 1.4 11.8095 -79.2287 66.3441
761 -6 12.75 1.4 11.5638 -71.3186 8.5754
762 -5.75 12.75 1.4 11.3183 -62.5466 -161.696
763 -5.5 12.75 1.4 11.073 -59.6803 101.44
764 -5.25 12.75 1.4 10.828 -61.8385 40.8808
765 -5 12.75 1.4 10.5831 -64.4385 -124.532
766 -4.75 12.75 1.4 10.3385 -61.2177 -77.1538
767 -4.5 12.75 1.4 10.0942 -55.1096 170.096
768 -4.25 12.75 1.4 9.85018 -64.5928 45.1523
769 -4 12.75 1.4 9.60645 -74.4939 173.2
770 -3.75 12.75 1.4 9.36305 -60.6835 -57.9192
771 -3.5 12.75 1.4 9.12 -59.6042 158.068
772 -3.25 12.75 1.4 8.87734 -62.7672 93.7076
773 -3 12.75 1.4 8.6351 -67.9551 -10.0646
774 -2.75 12.75 1.4 8.39332 -61.2407 -143.772
775 -2.5 12.75 1.4 8.15203 -63.8235 107.409
776 -2.25 12.75 1.4 7.91128 -61.6913 0.578978
777 -2 12.75 1.4 7.67112 -58.2555 -171.356
778 -1.75 12.75 1.4 7.43161 -61.328 80.0081
779 -1.5 12.75 1.4 7.19282 -67.4784 -88.8453
780 -1.25 12.75 1.4 6.95481 -59.8075 115.426
781 -1 12.75 1.4 6.71768 -57.1977 3.72864
782 -0.75 12.75 1.4 6.48151 -61.1457 114.682
783 -0.5 12.75 1.4 6.24642 -61.5507 -10.8743
784 -0.25 12.75 1.4 6.01253 -61.0441 96.9971
785 -1.77636e-15 12.75 1.4 5.78 -57.6044 -55.9685
786 0.25 12.75 1.4 5.54897 -61.344 -18.2707
787 0.5 12.75 1.4 5.31967 -65.1787 -123.132
788 0.75 12.75 1.4 5.09232 -60.5056 131.018
789 1 12.75 1.4 4.86718 -65.1006 157.721
790 1.25 12.75 1.4 4.64459 -57.7452 31.83
791 1.5 12.75 1.4 4.42493 -54.3072 -13.2212
792 1.75 12.75 1.4 4.20866 -49.6586 -88.5182
793 2 12.75 1.4 3.99632 -56.4315 148.455
794 2.25 12.75 1.4 3.78858 -52.256 33.8671
795 2.5 12.75 1.4 3.58624 -48.2677 -48.8331
796 2.75 12.75 1.4 3.39027 -51.3281 152.193
797 3 12.75 1.4 3.20183 -54.7649 -4.64033
798 3.25 12.75 1.4 3.02233 -45.944 154.691
799 3.5 12.75 1.4 2.85346 -47.772 -47.6243
800 3.75 12.75 1.4 2.69723 -50.7767 53.6897
801 4 12.75 1.4 2.55594 -42.5376 93.0698
802 4.25 12.75 1.4 2.4322 -44.7624 112.205
803 4.5 12.75 1.4 2.32881 -54.0398 55.0518
804 4.75 12.75 1.4 2.24859 -44.6025 -58.795
805 5 12.75 1.4 2.19407 -43.3012 80.8663
806 5.25 12.75 1.4 2.16719 -42.9246 158.033
807 5.5 12.75 1.4 2.16898 -44.1276 116.103
808 5.75 12.75 1.4 2.19938 -45.8955 -51.9175
809 6 12.75 1.4 2.25722 -51.6284 118.235
810 6.25 12.75 1.4 2.34048 -45.7207 -104.176
811 6.5 12.75 1.4 2.44655 -46.8815 -39.2082
812 6.75 12.75 1.4 2.57262 -43.6878 -41.8574
813 7 12.75 1.4 2.71591 -45.6378 -63.2354
814 7.25 12.75 1.4 2.87384 -42.7843 -171.856
815 7.5 12.75 1.4 3.04413 -48.3964 52.3855
816 7.75 12.75 1.4 3.22483 -53.912 -76.5595
817 8 12.75 1.4 3.41428 -49.3057 89.8214
818 8.25 12.75 1.4 3.6111 -53.9468 -166.356
819 8.5 12.75 1.4 3.81416 -56.9817 -96.3197
820 8.75 12.75 1.4 4.02251 -57.5188 123.804
821 9 12.75 1.4 4.23538 -53.1585 -178.318
822 9.25 12.75 1.4 4.4521 -68.9873 139.22
823 9.5 12.75 1.4 4.67215 -64.1192 33.6542
824 9.75 12.75 1.4 4.89507 -66.6853 -25.956
825 10 12.75 1.4 5.1205 -62.5349 48.5951
826 10.25 12.75 1.4 5.34811 -62.886 94.1807
827 10.5 12.75 1.4 5.57764 -66.0041 -129.772
828 10.75 12.75 1.4 5.80886 -62.9064 169.037
829 11 12.75 1.4 6.04158 -55.42 -33.9065
830 11.25 12.75 1.4 6.27562 -60.9988 -128.319
831 11.5 12.75 1.4 6.51085 -59.7397 -0.937407
832 11.75 12.75 1.4 6.74715 -60.1305 -114.214
833 12 12.75 1.4 6.98439 -57.707 -0.493945
834 12.25 12.75 1.4 7.2225 -64.8681 -122.494
835 12.5 12.75 1.4 7.46139 -60.0934 -22.7851
836 12.75 12.75 1.4 7.70098 -58.713 124.939
837 13 12.75 1.4 7.94121 -63.7589 -114.084
838 13.25 12.75 1.4 8.18203 -67.1613 6.97112
839 13.5 12.75 1.4 8.42339 -60.1953 136.576
840 13.75 12.75 1.4 8.66523 -65.2521 -46.8677
841 14 12.75 1.4 8.90752 -64.1448 -43.4486
842 14.25 12.75 1.4 9.15023 -65.8807 94.0742
843 14.5 12.75 1.4 9.39332 -67.7913 -132.29
844 14.75 12.75 1.4 9.63677 -65.2945 105.96
845 15 12.75 1.4 9.88054 -60.4495 -31.598
846 15.25 12.75 1.4 10.1246 -60.2695 126.033
847 15.5 12.75 1.4 10.369 -72.3497 23.8722
848 15.75 12.75 1.4 10.6136 -66.2943 -124.209
849 16 12.75 1.4 10.8585 -63.6094 -35.0565
850 16.25 12.75 1.4 11.1036 -64.5899 48.7542
851 16.5 12.75 1.4 11.3489 -70.1881 127.953
852 16.75 12.75 1.4 11.5944 -66.8387 98.9081
853 17 12.75 1.4 11.8401 -61.557 -143.312
854 17.25 12.75 1.4 12.0859 -62.0081 -18.2006
855 17.5 12.75 1.4 12.332 -86.827 142.894
856 17.75 12.75 1.4 12.5782 -63.4379 -43.5454
857 18 12.75 1.4 12.8245 -64.2899 63.9353
858 18.25 12.75 1.4 13.071 -71.6627 -24.283
859 18.5 12.75 1.4 13.3176 -63.8336 -123.741
860 18.75 12.75 1.4 13.5644 -66.516 58.3773
861 19 12.75 1.4 13.8112 -64.749 -111.983
862 19.25 12.75 1.4 14.0582 -65.5396 -110.805
863 19.5 12.75 1.4 14.3052 -65.3892 -46.0875
864 19.75 12.75 1.4 14.5524 -73.5503 -170.71
865 20 12.75 1.4 14.7997 -69.1277 -66.2953
866 20.25 12.75 1.4 15.047 -64.6479 -133.754
867 20.5 12.75 1.4 15.2945 -64.0318 67.1121
868 20.75 12.75 1.4 15.542 -70.5714 -178.019
869 21 12.75 1.4 15.7896 -62.8674 146.668
870 21.25 12.75 1.4 16.0373 -67.9481 -129.35
871 21.5 12.75 1.4 16.285 -65.1638 52.4871
872 21.75 12.75 1.4 16.5329 -62.5308 -161.711
873 22 12.75 1.4 16.7807 -69.4222 97.3981
874 22.25 12.75 1.4 17.0287 -63.3549 -153.665
875 22.5 12.75 1.4 17.2767 -63.6441 -38.3303
876 22.75 12.75 1.4 17.5247 -71.315 50.6609
877 23 12.75 1.4 17.7728 -70.0424 84.9927
878 23.25 12.75 1.4 18.021 -72.5727 119.464
879 23.5 12.75 1.4 18.2692 -70.4196 -145.609
880 23.75 12.75 1.4 18.5175 -69.3475 -78.8542
881 24 12.75 1.4 18.7658 -69.7676 -20.759
882 24.25 12.75 1.4 19.0142 -75.7832 11.4296
883 -7 13 1.4 12.5068 -64.7277 100.379
884 -6.75 13 1.4 12.2598 -75.3985 -89.624
885 -6.5 13 1.4 12.013 -66.343 43.3385
886 -6.25 13 1.4 11.7662 -63.5262 -53.0494
887 -6 13 1.4 11.5196 -61.0891 -99.1832
888 -5.75 13 1.4 11.2732 -65.4063 -159.412
889 -5.5 13 1.4 11.0269 -61.7057 165.961
890 -5.25 13 1.4 10.7808 -60.3712 52.5739
891 -5 13 1.4 10.5348 -60.3471 -27.0104
892 -4.75 13 1.4 10.2891 -59.521 -179.417
893 -4.5 13 1.4 10.0436 -62.6768 -144.959
894 -4.25 13 1.4 9.79828 -58.731 87.2569
895 -4 13 1.4 9.55323 -57.4112 -35.7278
896 -3.75 13 1.4 9.30843 -63.3405 -177.744
897 -3.5 13 1.4 9.06392 -72.5315 -95.4893
898 -3.25 13 1.4 8.81972 -59.285 30.9469
899 -3 13 1.4 8.57585 -63.6854 -79.4483
900 -2.75 13 1.4 8.33235 -63.9657 117.066
901 -2.5 13 1.4 8.08924 -62.3472 25.7445
902 -2.25 13 1.4 7.84657 -59.2741 -93.5258
903 -2 13 1.4 7.60437 -69.3285 99.961
904 -1.75 13 1.4 7.36269 -64.5909 -50.425
905 -1.5 13 1.4 7.12158 -67.8307 136.47
906 -1.25 13 1.4 6.88111 -57.6276 -7.44087
907 -1 13 1.4 6.64135 -55.2545 -146.934
908 -0.75 13 1.4 6.40237 -59.0319 -40.9638
909 -0.5 13 1.4 6.16426 -59.8748 -164.414
910 -0.25 13 1.4 5.92713 -59.9533 -66.1081
911 -1.77636e-15 13 1.4 5.6911 -72.7568 -155.015
912 0.25 13 1.4 5.45632 -73.1545 -162.211
913 0.5 13 1.4 5.22295 -63.1754 -145.789
914 0.75 13 1.4 4.99119 -59.2879 120.098
915 1 13 1.4 4.76128 -60.2632 48.4877
916 1.25 13 1.4 4.53349 -59.6867 -19.0922
917 1.5 13 1.4 4.30817 -56.1626 -3.41006
918 1.75 13 1.4 4.08572 -56.333 -83.2524
919 2 13 1.4 3.86663 -54.2653 164.193
920 2.25 13 1.4 3.65153 -50.7316 89.4719
921 2.5 13 1.4 3.44114 -51.4695 3.90563
922 2.75 13 1.4 3.23639 -49.4073 -60.3381
923 3 13 1.4 3.03842 -48.9696 128.391
924 3.25 13 1.4 2.84864 -56.0526 -46.4991
925 3.5 13 1.4 2.66881 -50.3041 130.096
926 3.75 13 1.4 2.50106 -47.1412 -108.386
927 4 13 1.4 2.348 -44.8581 32.5342
928 4.25 13 1.4 2.21266 -45.7492 44.8774
929 4.5 13 1.4 2.09849 -47.527 -22.211
930 4.75 13 1.4 2.00909 -44.8669 -65.3717
931 5 13 1.4 1.94788 -42.1431 93.4937
932 5.25 13 1.4 1.91755 -43.3026 -174.53
933 5.5 13 1.4 1.91958 -46.8111 150.712
934 5.75 13 1.4 1.95386 -48.0341 -38.2022
935 6 13 1.4 2.01875 -48.2598 86.0176
936 6.25 13 1.4 2.11143 -44.5622 -138.969
937 6.5 13 1.4 2.22843 -45.1493 -122.185
938 6.75 13 1.4 2.36615 -44.2934 -143.319
939 7 13 1.4 2.5212 -45.4092 126.093
940 7.25 13 1.4 2.69058 -48.2673 36.0169
941 7.5 13 1.4 2.87176 -47.0961 -116.59
942 7.75 13 1.4 3.06264 -46.1859 65.2956
943 8 13 1.4 3.26153 -50.36 -168.742
944 8.25 13 1.4 3.46704 -53.8317 -81.9632
945 8.5 13 1.4 3.67806 -63.317 147.997
946 8.75 13 1.4 3.8937 -59.04 -129.78
947 9 13 1.4 4.11323 -57.1244 -121.454
948 9.25 13 1.4 4.33607 -60.4877 -106.223
949 9.5 13 1.4 4.56172 -70.3295 -176.427
950 9.75 13 1.4 4.78978 -60.0153 -41.9956
951 10 13 1.4 5.01994 -60.5678 11.7602
952 10.25 13 1.4 5.25191 -65.3261 84.4516
953 10.5 13 1.4 5.48547 -69.2356 84.0266
954 10.75 13 1.4 5.72041 -60.8577 -95.8137
955 11 13 1.4 5.95659 -59.8929 148.575
956 11.25 13 1.4 6.19384 -60.8496 55.9398
957 11.5 13 1.4 6.43207 -56.9617 -172.695
958 11.75 13 1.4 6.67115 -62.5309 107.889
959 12 13 1.4 6.91101 -55.6851 -105.486
960 12.25 13 1.4 7.15156 -62.5364 33.854
961 12.5 13 1.4 7.39274 -65.1501 -148.976
962 12.75 13 1.4 7.63449 -62.2653 22.1663
963 13 13 1.4 7.87675 -60.3426 -170.486
964 13.25 13 1.4 8.11948 -62.7796 -65.8641
965 13.5 13 1.4 8.36264 -67.7927 43.011
966 13.75 13 1.4 8.60619 -58.533 -160.777
967 14 13 1.4 8.8501 -64.2926 -37.7381
968 14.25 13 1.4 9.09434 -73.3272 -28.6811
969 14.5 13 1.4 9.33889 -63.1144 113.819
970 14.75 13 1.4 9.58372 -57.8136 -97.7458
971 15 13 1.4 9.8288 -65.6406 98.0926
972 15.25 13 1.4 10.0741 -63.9365 -26.0494
973 15.5 13 1.4 10.3197 -61.6784 148.277
974 15.75 13 1.4 10.5655 -61.7791 -124.516
975 16 13 1.4 10.8114 -68.8827 38.7581
976 16.25 13 1.4 11.0575 -71.4077 97.0971
977 16.5 13 1.4 11.3039 -64.9193 91.3785
978 16.75 13 1.4 11.5503 -59.9978 172.232
979 17 13 1.4 11.7969 -63.5837 -50.6489
980 17.25 13 1.4 12.0437 -72.4421 96.9319
981 17.5 13 1.4 12.2906 -74.7916 -120.549
982 17.75 13 1.4 12.5376 -62.3918 57.8292
983 18 13 1.4 12.7847 -64.2722 85.7045
984 18.25 13 1.4 13.0319 -65.1042 -171.867
985 18.5 13 1.4 13.2793 -65.8555 12.5873
986 18.75 13 1.4 13.5267 -83.5786 -58.288
987 19 13 1.4 13.7742 -76.8773 -174.313
988 19.25 13 1.4 14.0219 -62.3515 -59.7937
989 19.5 13 1.4 14.2696 -66.2125 41.4207
990 19.75 13 1.4 14.5173 -71.0657 10.7441
991 20 13 1.4 14.7652 -71.2524 159.289
992 20.25 13 1.4 15.0131 -62.8221 24.6161
993 20.5 13 1.4 15.2611 -78.5189 -169.733
994 20.75 13 1.4 15.5092 -66.8485 55.3994
995 21 13 1.4 15.7573 -67.254 -158.245
996 21.25 13 1.4 16.0055 -66.7192 -56.8782
997 21.5 13 1.4 16.2537 -70.8916 -128.19
998 21.75 13 1.4 16.502 -64.2241 -25.8248
999 22 13 1.4 16.7503 -65.4678 132.48
1000 22.25 13 1.4 16.9987 -64.3829 -88.4506
1001 22.5 13 1.4 17.2471 -65.4261 -41.6938
1002 22.75 13 1.4 17.4956 -69.6838 46.2609
1003 23 13 1.4 17.7441 -68.5084 27.07
1004 23.25 13 1.4 17.9927 -67.9754 106.832
1005 23.5 13 1.4 18.2413 -69.5189 171.093
1006 23.75 13 1.4 18.4899 -69.2794 -103.859
1007 24 13 1.4 18.7386 -75.9129 -49.1681
1008 24.25 13 1.4 18.9873 -67.5866 -52.6
1009 -7 13.25 1.4 12.471 -67.5924 -141.61
1010 -6.75 13.25 1.4 12.2233 -61.9245 63.4577
1011 -6.5 13.25 1.4 11.9757 -67.5413 -1.73906
1012 -6.25 13.25 1.4 11.7281 -63.4541 -11.2771
1013 -6 13.25 1.4 11.4807 -64.7724 -102.804
1014 -5.75 13.25 1.4 11.2334 -62.6766 -139.947
1015 -5.5 13.25 1.4 10.9863 -65.7294 82.484
1016 -5.25 13.25 1.4 10.7392 -62.925 69.6562
1017 -5 13.25 1.4 10.4923 -63.3983 16.3599
1018 -4.75 13.25 1.4 10.2455 -56.2061 -135.032
1019 -4.5 13.25 1.4 9.99894 -59.5499 109.016
1020 -4.25 13.25 1.4 9.75252 -61.9181 -5.39872
1021 -4 13.25 1.4 9.50628 -70.3785 98.3587
1022 -3.75 13.25 1.4 9.26025 -60.0269 -138.194
1023 -3.5 13.25 1.4 9.01443 -56.6499 86.48
1024 -3.25 13.25 1.4 8.76885 -61.0433 -57.958
1025 -3 13.25 1.4 8.52353 -65.7796 158.389
1026 -2.75 13.25 1.4 8.27849 -61.751 72.5337
1027 -2.5 13.25 1.4 8.03375 -66.5723 -43.8574
1028 -2.25 13.25 1.4 7.78935 -60.167 146.337
1029 -2 13.25 1.4 7.54531 -61.6068 20.0009
1030 -1.75 13.25 1.4 7.30168 -63.7512 -162.834
1031 -1.5 13.25 1.4 7.05849 -57.9514 53.5767
1032 -1.25 13.25 1.4 6.81579 -61.0747 -139.958
1033 -1 13.25 1.4 6.57364 -57.8436 36.1895
1034 -0.75 13.25 1.4 6.33211 -60.2198 170.635
1035 -0.5 13.25 1.4 6.09125 -63.0675 -1.30894
1036 -0.25 13.25 1.4 5.85117 -59.6915 136.036
1037 -1.77636e-15 13.25 1.4 5.61194 -65.6079 116.985
1038 0.25 13.25 1.4 5.3737 -70.6362 16.2326
1039 0.5 13.25 1.4 5.13658 -70.0636 -20.4517
1040 0.75 13.25 1.4 4.90074 -59.8404 16.7975
1041 1 13.25 1.4 4.66637 -56.9959 -28.09
1042 1.25 13.25 1.4 4.43371 -63.5798 -20.1792
1043 1.5 13.25 1.4 4.20305 -64.0056 -177.393
1044 1.75 13.25 1.4 3.97472 -60.0154 -171.595
1045 2 13.25 1.4 3.74915 -58.9166 145.779
1046 2.25 13.25 1.4 3.52689 -49.8663 115.991
1047 2.5 13.25 1.4 3.30858 -52.48 52.7196
1048 2.75 13.25 1.4 3.09508 -49.6118 -21.0153
1049 3 13.25 1.4 2.88743 -47.6897 -134.575
1050 3.25 13.25 1.4 2.68702 -48.3095 97.5342
1051 3.5 13.25 1.4 2.49556 -47.0706 -62.3915
1052 3.75 13.25 1.4 2.3153 -50.4165 105.971
1053 4 13.25 1.4 2.14904 -48.035 -171.771
1054 4.25 13.25 1.4 2.00029 -48.179 -49.305
1055 4.5 13.25 1.4 1.87322 -43.1163 -68.6953
1056 4.75 13.25 1.4 1.77249 -44.5176 -73.7826
1057 5 13.25 1.4 1.70279 -42.355 92.1552
1058 5.25 13.25 1.4 1.66802 -40.9926 -156.06
1059 5.5 13.25 1.4 1.67035 -46.2031 170.482
1060 5.75 13.25 1.4 1.70963 -46.0561 -41.5591
1061 6 13.25 1.4 1.78343 -44.0874 70.078
1062 6.25 13.25 1.4 1.8877 -43.0939 169.701
1063 6.5 13.25 1.4 2.01772 -41.6161 152.746
1064 6.75 13.25 1.4 2.16886 -42.1234 103.686
1065 7 13.25 1.4 2.33704 -43.1666 0.378409
1066 7.25 13.25 1.4 2.51883 -44.5722 -161.118
1067 7.5 13.25 1.4 2.71151 -47.8927 10.3607
1068 7.75 13.25 1.4 2.91292 -46.8585 121.255
1069 8 13.25 1.4 3.12136 -50.3581 -123.559
1070 8.25 13.25 1.4 3.33551 -52.7062 -39.5922
1071 8.5 13.25 1.4 3.55435 -57.2684 24.4159
1072 8.75 13.25 1.4 3.77706 -60.412 25.6689
1073 9 13.25 1.4 4.003 -60.0726 -120.536
1074 9.25 13.25 1.4 4.23164 -58.3592 -67.8242
1075 9.5 13.25 1.4 4.46257 -57.9796 -127.516
1076 9.75 13.25 1.4 4.69546 -54.1225 -108.547
1077 10 13.25 1.4 4.93002 -66.5866 -110.904
1078 10.25 13.25 1.4 5.16603 -64.5024 -128.938
1079 10.5 13.25 1.4 5.4033 -64.9705 -87.7707
1080 10.75 13.25 1.4 5.64167 -74.1831 9.83506
1081 11 13.25 1.4 5.881 -61.4081 -30.6419
1082 11.25 13.25 1.4 6.12119 -63.2707 169.33
1083 11.5 13.25 1.4 6.36214 -58.1529 57.07
1084 11.75 13.25 1.4 6.60375 -63.5286 -130.56
1085 12 13.25 1.4 6.84597 -59.8124 107.871
1086 12.25 13.25 1.4 7.08873 -61.8361 -54.8026
1087 12.5 13.25 1.4 7.33198 -59.4384 59.3492
1088 12.75 13.25 1.4 7.57566 -63.6846 -77.0025
1089 13 13.25 1.4 7.81975 -59.6601 49.9321
1090 13.25 13.25 1.4 8.06419 -63.5644 -85.059
1091 13.5 13.25 1.4 8.30897 -66.589 -24.1684
1092 13.75 13.25 1.4 8.55405 -65.5755 58.7325
1093 14 13.25 1.4 8.79941 -60.8059 -131.433
1094 14.25 13.25 1.4 9.04502 -58.8224 2.37271
1095 14.5 13.25 1.4 9.29086 -81.2205 -168.207
1096 14.75 13.25 1.4 9.53692 -68.0792 104.693
1097 15 13.25 1.4 9.78318 -55.9537 -62.1566
1098 15.25 13.25 1.4 10.0296 -60.1753 57.9536
1099 15.5 13.25 1.4 10.2762 -66.1238 -161.085
1100 15.75 13.25 1.4 10.523 -86.0412 -84.3401
1101 16 13.25 1.4 10.7699 -68.7708 -95.6484
1102 16.25 13.25 1.4 11.017 -65.1333 -23.8857
1103 16.5 13.25 1.4 11.2642 -62.1306 154.739
1104 16.75 13.25 1.4 11.5115 -60.8018 -109.562
1105 17 13.25 1.4 11.759 -73.6972 -49.9025
1106 17.25 13.25 1.4 12.0065 -66.23 -107.651
1107 17.5 13.25 1.4 12.2541 -73.5797 -38.3634
1108 17.75 13.25 1.4 12.5019 -70.4228 137.088
1109 18 13.25 1.4 12.7497 -61.2034 178.13
1110 18.25 13.25 1.4 12.9976 -70.7501 -97.1657
1111 18.5 13.25 1.4 13.2456 -75.1751 -108.699
1112 18.75 13.25 1.4 13.4936 -70.8022 96.4219
1113 19 13.25 1.4 13.7417 -69.0427 -86.6548
1114 19.25 13.25 1.4 13.9899 -65.6928 72.5057
1115 19.5 13.25 1.4 14.2382 -72.306 40.5486
1116 19.75 13.25 1.4 14.4865 -62.6431 120.768
1117 20 13.25 1.4 14.7349 -74.7055 -30.4476
1118 20.25 13.25 1.4 14.9833 -74.8935 -178.907
1119 20.5 13.25 1.4 15.2318 -63.4284 9.71955
1120 20.75 13.25 1.4 15.4803 -72.2402 139.259
1121 21 13.25 1.4 15.7289 -63.0982 -62.5181
1122 21.25 13.25 1.4 15.9775 -72.9381 102.768
1123 21.5 13.25 1.4 16.2262 -60.2788 -40.7844
1124 21.75 13.25 1.4 16.4749 -67.0704 51.3716
1125 22 13.25 1.4 16.7236 -67.8194 -169.368
1126 22.25 13.25 1.4 16.9724 -84.4215 49.5567
1127 22.5 13.25 1.4 17.2212 -70.2197 -118.555
1128 22.75 13.25 1.4 17.47 -69.9889 -78.5408
1129 23 13.25 1.4 17.7189 -76.0109 87.3828
1130 23.25 13.25 1.4 17.9678 -74.1299 169.451
1131 23.5 13.25 1.4 18.2168 -72.705 177.088
1132 23.75 13.25 1.4 18.4657 -67.4015 -173.626
1133 24 13.25 1.4 18.7147 -67.9234 -133.443
1134 24.25 13.25 1.4 18.9637 -78.8461 -71.1389
1135 -7 13.5 1.4 12.4401 -73.6006 142.501
1136 -6.75 13.5 1.4 12.1918 -65.0487 161.604
1137 -6.5 13.5 1.4 11.9435 -64.2459 48.2465
1138 -6.25 13.5 1.4 11.6953 -70.0342 -16.471
1139 -6 13.5 1.4 11.4472 -64.4338 -81.2992
1140 -5.75 13.5 1.4 11.1991 -66.6743 161.986
1141 -5.5 13.5 1.4 10.9512 -61.9962 123.165
1142 -5.25 13.5 1.4 10.7033 -61.5556 32.9231
1143 -5 13.5 1.4 10.4556 -70.5299 -104.211
1144 -4.75 13.5 1.4 10.2079 -67.8631 -137.068
1145 -4.5 13.5 1.4 9.96038 -62.4278 130.059
1146 -4.25 13.5 1.4 9.71298 -60.3315 21.5071
1147 -4 13.5 1.4 9.46571 -57.2632 -120.628
1148 -3.75 13.5 1.4 9.2186 -59.2542 89.2891
1149 -3.5 13.5 1.4 8.97164 -65.5325 -34.9646
1150 -3.25 13.5 1.4 8.72485 -70.8838 142.76
1151 -3 13.5 1.4 8.47826 -64.304 161.084
1152 -2.75 13.5 1.4 8.23187 -61.1095 -26.0802
1153 -2.5 13.5 1.4 7.9857 -61.589 -173.397
1154 -2.25 13.5 1.4 7.73978 -58.6358 38.2592
1155 -2 13.5 1.4 7.49413 -61.6113 -153.567
1156 -1.75 13.5 1.4 7.24878 -62.4831 89.3268
1157 -1.5 13.5 1.4 7.00375 -61.5687 -96.7398
1158 -1.25 13.5 1.4 6.75909 -58.6943 43.895
1159 -1 13.5 1.4 6.51484 -64.2528 -122.308
1160 -0.75 13.5 1.4 6.27103 -56.8715 10.3443
1161 -0.5 13.5 1.4 6.02774 -62.0717 -162.802
1162 -0.25 13.5 1.4 5.78502 -61.3872 -114.534
1163 -1.77636e-15 13.5 1.4 5.54294 -65.0081 -83.7234
1164 0.25 13.5 1.4 5.3016 -69.0059 -27.3655
1165 0.5 13.5 1.4 5.0611 -62.2758 -86.3212
1166 0.75 13.5 1.4 4.82157 -67.528 -156.106
1167 1 13.5 1.4 4.58316 -55.6311 177.901
1168 1.25 13.5 1.4 4.34604 -55.6732 -162.498
1169 1.5 13.5 1.4 4.11046 -54.5766 176.073
1170 1.75 13.5 1.4 3.87668 -56.6511 158.957
1171 2 13.5 1.4 3.64506 -56.9074 166.487
1172 2.25 13.5 1.4 3.41602 -56.6343 127.976
1173 2.5 13.5 1.4 3.19014 -54.7784 105.915
1174 2.75 13.5 1.4 2.96813 -48.0431 -21.543
1175 3 13.5 1.4 2.75092 -49.1744 -109.08
1176 3.25 13.5 1.4 2.53975 -47.8144 164.599
1177 3.5 13.5 1.4 2.33626 -46.145 29.7736
1178 3.75 13.5 1.4 2.14264 -45.1834 -111.753
1179 4 13.5 1.4 1.9618 -42.6051 74.4396
1180 4.25 13.5 1.4 1.79763 -43.9464 179.007
1181 4.5 13.5 1.4 1.65506 -40.5396 -115.568
1182 4.75 13.5 1.4 1.54013 -43.3091 -122.927
1183 5 13.5 1.4 1.45938 -40.9269 98.6023
1184 5.25 13.5 1.4 1.41865 -41.5362 -139.554
1185 5.5 13.5 1.4 1.42139 -47.5339 -161.47
1186 5.75 13.5 1.4 1.46736 -43.3762 -41.8457
1187 6 13.5 1.4 1.55271 -41.1453 49.3219
1188 6.25 13.5 1.4 1.67143 -40.7012 98.3451
1189 6.5 13.5 1.4 1.817 -40.463 61.1887
1190 6.75 13.5 1.4 1.98349 -44.2008 -42.6204
1191 7 13.5 1.4 2.16611 -46.4444 154.823
1192 7.25 13.5 1.4 2.3611 -49.655 -57.2016
1193 7.5 13.5 1.4 2.56566 -50.7126 73.6193
1194 7.75 13.5 1.4 2.77766 -49.544 149.635
1195 8 13.5 1.4 2.99552 -50.1706 -100.417
1196 8.25 13.5 1.4 3.21806 -51.9895 -13.8746
1197 8.5 13.5 1.4 3.44437 -52.2487 20.5558
1198 8.75 13.5 1.4 3.67376 -59.0156 45.1688
1199 9 13.5 1.4 3.90567 -56.9012 47.8522
1200 9.25 13.5 1.4 4.13969 -56.0339 59.6023
1201 9.5 13.5 1.4 4.37548 -60.2501 83.8801
1202 9.75 13.5 1.4 4.61277 -81.0277 74.6753
1203 10 13.5 1.4 4.85133 -62.3644 165.413
1204 10.25 13.5 1.4 5.09099 -57.6971 167.039
1205 10.5 13.5 1.4 5.3316 -75.6778 88.8805
1206 10.75 13.5 1.4 5.57304 -68.9193 130.979
1207 11 13.5 1.4 5.8152 -62.3718 124.7
1208 11.25 13.5 1.4 6.05799 -70.4265 -49.9672
1209 11.5 13.5 1.4 6.30135 -60.3761 -135.444
1210 11.75 13.5 1.4 6.54522 -61.5559 94.0122
1211 12 13.5 1.4 6.78952 -65.4069 -34.5037
1212 12.25 13.5 1.4 7.03423 -58.2996 145.296
1213 12.5 13.5 1.4 7.2793 -91.9852 -35.7926
1214 12.75 13.5 1.4 7.52469 -64.0844 127.08
1215 13 13.5 1.4 7.77038 -62.6366 -69.9454
1216 13.25 13.5 1.4 8.01633 -56.9531 103.426
1217 13.5 13.5 1.4 8.26252 -65.5199 -77.4282
1218 13.75 13.5 1.4 8.50894 -64.8303 57.2446
1219 14 13.5 1.4 8.75556 -66.803 103.64
1220 14.25 13.5 1.4 9.00237 -61.8639 -129.891
1221 14.5 13.5 1.4 9.24935 -58.5092 52.4055
1222 14.75 13.5 1.4 9.49648 -62.2364 -163.203
1223 15 13.5 1.4 9.74377 -66.2634 -21.4687
1224 15.25 13.5 1.4 9.99118 -77.4831 -45.888
1225 15.5 13.5 1.4 10.2387 -65.3818 67.7516
1226 15.75 13.5 1.4 10.4864 -61.8053 -172.212
1227 16 13.5 1.4 10.7342 -59.5233 -43.1345
1228 16.25 13.5 1.4 10.982 -61.6694 65.2082
1229 16.5 13.5 1.4 11.23 -66.5503 -142.899
1230 16.75 13.5 1.4 11.478 -78.7732 -30.7745
1231 17 13.5 1.4 11.7262 -68.3045 -174.586
1232 17.25 13.5 1.4 11.9744 -66.6318 -28.5959
1233 17.5 13.5 1.4 12.2227 -64.8264 61.0755
1234 17.75 13.5 1.4 12.471 -64.28 132.036
1235 18 13.5 1.4 12.7194 -65.798 -104.369
1236 18.25 13.5 1.4 12.9679 -68.1217 -91.8698
1237 18.5 13.5 1.4 13.2165 -66.804 43.7419
1238 18.75 13.5 1.4 13.4651 -77.0179 -70.688
1239 19 13.5 1.4 13.7137 -68.8608 21.2556
1240 19.25 13.5 1.4 13.9624 -73.6918 0.0775426
1241 19.5 13.5 1.4 14.2111 -65.4813 106.005
1242 19.75 13.5 1.4 14.4599 -66.9521 -86.7466
1243 20 13.5 1.4 14.7087 -66.2911 -167.358
1244 20.25 13.5 1.4 14.9576 -60.9826 -44.5513
1245 20.5 13.5 1.4 15.2065 -68.837 35.7604
1246 20.75 13.5 1.4 15.4554 -66.3445 -90.0325
1247 21 13.5 1.4 15.7044 -65.0019 81.4829
1248 21.25 13.5 1.4 15.9534 -70.7559 -112.932
1249 21.5 13.5 1.4 16.2024 -62.5492 37.1226
1250 21.75 13.5 1.4 16.4515 -67.3557 123.135
1251 22 13.5 1.4 16.7006 -70.093 121.718
1252 22.25 13.5 1.4 16.9497 -66.6982 164.154
1253 22.5 13.5 1.4 17.1988 -64.5078 -131.834
1254 22.75 13.5 1.4 17.448 -66.1972 -77.6624
1255 23 13.5 1.4 17.6972 -70.0272 -34.3349
1256 23.25 13.5 1.4 17.9464 -78.8361 -29.3818
1257 23.5 13.5 1.4 18.1956 -70.6395 56.7611
1258 23.75 13.5 1.4 18.4449 -67.9412 137.825
1259 24 13.5 1.4 18.6941 -88.6012 -22.6018
1260 24.25 13.5 1.4 18.9434 -72.3345 74.9507
1261 -7 13.75 1.4 12.4142 -67.2371 -126.65
1262 -6.75 13.75 1.4 12.1653 -63.2441 114.845
1263 -6.5 13.75 1.4 11.9165 -62.4494 89.3268
1264 -6.25 13.75 1.4 11.6677 -64.3416 -10.8114
1265 -6 13.75 1.4 11.419 -69.1664 -123.608
1266 -5.75 13.75 1.4 11.1703 -60.4427 -173.192
1267 -5.5 13.75 1.4 10.9217 -65.287 77.8873
1268 -5.25 13.75 1.4 10.6731 -63.9405 -6.30988
1269 -5 13.75 1.4 10.4247 -63.6996 -102.299
1270 -4.75 13.75 1.4 10.1763 -59.7116 133.524
1271 -4.5 13.75 1.4 9.92796 -62.4212 4.42169
1272 -4.25 13.75 1.4 9.67973 -66.6344 -96.4744
1273 -4 13.75 1.4 9.4316 -72.9367 124.504
1274 -3.75 13.75 1.4 9.18356 -75.5526 91.2838
1275 -3.5 13.75 1.4 8.93564 -61.6331 -33.3853
1276 -3.25 13.75 1.4 8.68783 -61.8289 178.831
1277 -3 13.75 1.4 8.44015 -57.1316 6.07219
1278 -2.75 13.75 1.4 8.19261 -59.2897 -157.086
1279 -2.5 13.75 1.4 7.94523 -61.3384 39.0062
1280 -2.25 13.75 1.4 7.69802 -62.4582 -112.717
1281 -2 13.75 1.4 7.45099 -63.3906 112.093
1282 -1.75 13.75 1.4 7.20417 -72.7196 -42.5014
1283 -1.5 13.75 1.4 6.95757 -58.896 92.4292
1284 -1.25 13.75 1.4 6.71123 -66.7232 -116.803
1285 -1 13.75 1.4 6.46517 -60.3541 82.9163
1286 -0.75 13.75 1.4 6.21942 -63.2234 -158.165
1287 -0.5 13.75 1.4 5.97402 -67.6819 -74.3718
1288 -0.25 13.75 1.4 5.72902 -72.298 40.0901
1289 -1.77636e-15 13.75 1.4 5.48448 -59.9601 124.508
1290 0.25 13.75 1.4 5.24045 -66.3227 84.9145
1291 0.5 13.75 1.4 4.997 -64.7972 151.748
1292 0.75 13.75 1.4 4.75424 -57.5008 146.726
1293 1 13.75 1.4 4.51227 -64.1144 143.904
1294 1.25 13.75 1.4 4.27123 -62.1108 79.691
1295 1.5 13.75 1.4 4.03127 -69.4385 98.8133
1296 1.75 13.75 1.4 3.79262 -63.4959 -20.6854
1297 2 13.75 1.4 3.55552 -59.8948 -19.0547
1298 2.25 13.75 1.4 3.32032 -67.8003 -171.865
1299 2.5 13.75 1.4 3.08744 -86.9088 -143.004
1300 2.75 13.75 1.4 2.85746 -57.0658 -0.249863
1301 3 13.75 1.4 2.63113 -50.4627 -79.4769
1302 3.25 13.75 1.4 2.40949 -48.5332 -168.486
1303 3.5 13.75 1.4 2.19395 -46.6289 93.6364
1304 3.75 13.75 1.4 1.9865 -46.0395 -21.0038
1305 4 13.75 1.4 1.78996 -47.1097 -160.128
1306 4.25 13.75 1.4 1.60834 -44.2642 30.1829
1307 4.5 13.75 1.4 1.44725 -41.7977 173.046
1308 4.75 13.75 1.4 1.31427 -40.5416 173.976
1309 5 13.75 1.4 1.21864 -39.1006 86.8868
1310 5.25 13.75 1.4 1.16956 -39.2861 -119.648
1311 5.5 13.75 1.4 1.17288 -47.1948 24.0502
1312 5.75 13.75 1.4 1.22818 -40.3617 -49.8267
1313 6 13.75 1.4 1.32898 -38.0811 13.5825
1314 6.25 13.75 1.4 1.46594 -39.8215 7.11058
1315 6.5 13.75 1.4 1.62996 -41.8982 -83.444
1316 6.75 13.75 1.4 1.81371 -43.5562 126.579
1317 7 13.75 1.4 2.01179 -50.1274 -79.9012
1318 7.25 13.75 1.4 2.22038 -53.263 -11.565
1319 7.5 13.75 1.4 2.43678 -51.4243 85.7322
1320 7.75 13.75 1.4 2.65907 -50.5627 166.492
1321 8 13.75 1.4 2.8859 -50.7028 -112.514
1322 8.25 13.75 1.4 3.11628 -53.6232 -25.3025
1323 8.5 13.75 1.4 3.34948 -59.9879 62.3769
1324 8.75 13.75 1.4 3.58494 -61.9096 86.848
1325 9 13.75 1.4 3.82224 -61.0238 -163.937
1326 9.25 13.75 1.4 4.06108 -59.9278 -14.0048
1327 9.5 13.75 1.4 4.30118 -59.7224 78.1034
1328 9.75 13.75 1.4 4.54234 -61.4006 55.0611
1329 10 13.75 1.4 4.78442 -59.3707 45.4376
1330 10.25 13.75 1.4 5.02727 -73.8813 -91.4719
1331 10.5 13.75 1.4 5.27079 -65.009 -5.46746
1332 10.75 13.75 1.4 5.51489 -62.0988 35.3634
1333 11 13.75 1.4 5.7595 -78.2789 -52.6447
1334 11.25 13.75 1.4 6.00455 -67.3404 -168.072
1335 11.5 13.75 1.4 6.24999 -62.1726 0.435587
1336 11.75 13.75 1.4 6.49578 -57.3188 -50.9109
1337 12 13.75 1.4 6.74188 -70.9189 -178.121
1338 12.25 13.75 1.4 6.98825 -59.7768 -3.41756
1339 12.5 13.75 1.4 7.23488 -63.4868 -152.132
1340 12.75 13.75 1.4 7.48173 -74.094 -33.7407
1341 13 13.75 1.4 7.72878 -61.3615 167.032
1342 13.25 13.75 1.4 7.97601 -65.0226 -52.802
1343 13.5 13.75 1.4 8.22342 -58.1817 141.876
1344 13.75 13.75 1.4 8.47097 -60.0865 -72.8471
1345 14 13.75 1.4 8.71867 -59.4735 119.907
1346 14.25 13.75 1.4 8.96649 -67.2366 -165.224
1347 14.5 13.75 1.4 9.21443 -61.3164 -131.913
1348 14.75 13.75 1.4 9.46248 -63.1645 78.1883
1349 15 13.75 1.4 9.71063 -57.8775 -171.624
1350 15.25 13.75 1.4 9.95887 -59.6597 -15.6986
1351 15.5 13.75 1.4 10.2072 -60.7162 100.182
1352 15.75 13.75 1.4 10.4556 -61.8726 -130.015
1353 16 13.75 1.4 10.7041 -68.1325 33.4155
1354 16.25 13.75 1.4 10.9526 -72.9004 -101.381
1355 16.5 13.75 1.4 11.2012 -64.1792 28.7314
1356 16.75 13.75 1.4 11.4499 -67.5705 176.797
1357 17 13.75 1.4 11.6987 -64.041 -90.6358
1358 17.25 13.75 1.4 11.9474 -65.4985 -15.2701
1359 17.5 13.75 1.4 12.1963 -63.9608 73.8012
1360 17.75 13.75 1.4 12.4452 -67.7242 166.589
1361 18 13.75 1.4 12.6941 -64.0726 -115.128
1362 18.25 13.75 1.4 12.943 -69.5852 -68.3832
1363 18.5 13.75 1.4 13.192 -78.4699 -72.429
1364 18.75 13.75 1.4 13.4411 -75.5616 -42.9482
1365 19 13.75 1.4 13.6902 -79.1002 -153.325
1366 19.25 13.75 1.4 13.9393 -66.5957 58.6983
1367 19.5 13.75 1.4 14.1884 -71.8073 -147.514
1368 19.75 13.75 1.4 14.4376 -69.6271 162.49
1369 20 13.75 1.4 14.6868 -63.4723 -102.783
1370 20.25 13.75 1.4 14.936 -72.5687 -7.96975
1371 20.5 13.75 1.4 15.1853 -77.5874 58.7649
1372 20.75 13.75 1.4 15.4345 -61.6488 45.6246
1373 21 13.75 1.4 15.6838 -61.9803 -170.525
1374 21.25 13.75 1.4 15.9332 -65.7323 -18.9
1375 21.5 13.75 1.4 16.1825 -68.607 118.843
1376 21.75 13.75 1.4 16.4319 -70.4132 -40.5362
1377 22 13.75 1.4 16.6812 -70.3643 36.9952
1378 22.25 13.75 1.4 16.9306 -73.9868 -168.619
1379 22.5 13.75 1.4 17.1801 -66.1908 -110.911
1380 22.75 13.75 1.4 17.4295 -69.1968 -41.8947
1381 23 13.75 1.4 17.6789 -70.3483 -59.4721
1382 23.25 13.75 1.4 17.9284 -65.5483 10.5254
1383 23.5 13.75 1.4 18.1779 -66.6874 62.1677
1384 23.75 13.75 1.4 18.4274 -77.0328 118.419
1385 24 13.75 1.4 18.6769 -67.5315 151.219
1386 24.25 13.75 1.4 18.9264 -66.0192 -179.034
1387 -7 14 1.4 12.3932 -65.3148 125.841
1388 -6.75 14 1.4 12.1439 -63.4077 147.014
1389 -6.5 14 1.4 11.8946 -66.7515 84.0881
1390 -6.25 14 1.4 11.6454 -61.5336 24.0265
1391 -6 14 1.4 11.3962 -61.4818 -138.385
1392 -5.75 14 1.4 11.147 -63.1051 -161.802
1393 -5.5 14 1.4 10.8979 -60.2112 36.8122
1394 -5.25 14 1.4 10.6488 -65.9311 5.72397
1395 -5 14 1.4 10.3997 -58.6886 -167.839
1396 -4.75 14 1.4 10.1507 -66.3677 110.188
1397 -4.5 14 1.4 9.90175 -58.0952 -0.647058
1398 -4.25 14 1.4 9.65285 -58.9729 -139.928
1399 -4 14 1.4 9.404 -63.2834 93.8641
1400 -3.75 14 1.4 9.15522 -59.5709 -33.8619
1401 -3.5 14 1.4 8.90651 -56.2547 179.95
1402 -3.25 14 1.4 8.65787 -59.3909 7.63566
1403 -3 14 1.4 8.40931 -60.3659 -127.001
1404 -2.75 14 1.4 8.16083 -61.87 33.1907
1405 -2.5 14 1.4 7.91246 -68.2007 -83.6403
1406 -2.25 14 1.4 7.66419 -68.3648 159.855
1407 -2 14 1.4 7.41603 -63.3999 -24.3362
1408 -1.75 14 1.4 7.16801 -64.4438 157.287
1409 -1.5 14 1.4 6.92012 -64.938 -76.5444
1410 -1.25 14 1.4 6.6724 -62.2888 103.22
1411 -1 14 1.4 6.42485 -60.0488 -121.287
1412 -0.75 14 1.4 6.17749 -62.8028 -16.3371
1413 -0.5 14 1.4 5.93036 -82.0434 -17.6777
1414 -0.25 14 1.4 5.68348 -66.4931 176.507
1415 -1.77636e-15 14 1.4 5.43689 -68.6421 -58.2002
1416 0.25 14 1.4 5.19062 -62.7824 139.135
1417 0.5 14 1.4 4.94473 -66.0992 -99.0487
1418 0.75 14 1.4 4.69927 -62.9721 -18.6184
1419 1 14 1.4 4.45431 -61.3696 -30.4445
1420 1.25 14 1.4 4.20995 -57.3357 -29.5596
1421 1.5 14 1.4 3.96629 -61.7867 -53.4006
1422 1.75 14 1.4 3.72347 -59.6079 -28.7864
1423 2 14 1.4 3.48167 -54.724 -78.6047
1424 2.25 14 1.4 3.24111 -54.7143 -106.546
1425 2.5 14 1.4 3.0021 -54.6841 171.307
1426 2.75 14 1.4 2.76502 -66.0732 88.3571
1427 3 14 1.4 2.53044 -57.1886 -169.489
1428 3.25 14 1.4 2.29911 -54.3257 175.145
1429 3.5 14 1.4 2.07212 -48.5147 80.8751
1430 3.75 14 1.4 1.85107 -48.4762 25.4028
1431 4 14 1.4 1.63837 -46.566 -77.9889
1432 4.25 14 1.4 1.43772 -42.6155 166.404
1433 4.5 14 1.4 1.25491 -43.1587 -22.4912
1434 4.75 14 1.4 1.0989 -39.8558 91.6566
1435 5 14 1.4 0.982532 -37.8557 68.4116
1436 5.25 14 1.4 0.92095 -38.0375 -105.997
1437 5.5 14 1.4 0.925164 -37.2905 89.5256
1438 5.75 14 1.4 0.994338 -37.3375 -79.4574
1439 6 14 1.4 1.11646 -35.9422 -45.0939
1440 6.25 14 1.4 1.27643 -39.6229 -115.795
1441 6.5 14 1.4 1.46186 -43.5545 100.862
1442 6.75 14 1.4 1.66428 -46.01 -136.773
1443 7 14 1.4 1.87819 -52.4507 -38.0648
1444 7.25 14 1.4 2.10009 -56.6188 7.39455
1445 7.5 14 1.4 2.3277 -54.6797 72.2654
1446 7.75 14 1.4 2.55948 -52.9381 127.682
1447 8 14 1.4 2.79441 -55.1332 -82.985
1448 8.25 14 1.4 3.03175 -58.329 10.5481
1449 8.5 14 1.4 3.27098 -55.6613 98.3173
1450 8.75 14 1.4 3.5117 -53.5949 125.927
1451 9 14 1.4 3.75364 -54.4824 177.987
1452 9.25 14 1.4 3.99658 -60.2993 -146.728
1453 9.5 14 1.4 4.24033 -61.6809 -127.377
1454 9.75 14 1.4 4.48477 -70.1631 132.062
1455 10 14 1.4 4.72979 -61.4829 101.678
1456 10.25 14 1.4 4.97531 -66.5729 70.9724
1457 10.5 14 1.4 5.22126 -59.9892 -25.3046
1458 10.75 14 1.4 5.46757 -73.5896 3.53237
1459 11 14 1.4 5.7142 -66.7695 135.799
1460 11.25 14 1.4 5.96111 -63.1138 -83.6832
1461 11.5 14 1.4 6.20827 -62.9824 -90.7028
1462 11.75 14 1.4 6.45565 -64.6415 128.325
1463 12 14 1.4 6.70322 -67.6671 -35.46
1464 12.25 14 1.4 6.95097 -60.1382 -163.751
1465 12.5 14 1.4 7.19887 -64.1198 25.7048
1466 12.75 14 1.4 7.44691 -66.5572 -102.245
1467 13 14 1.4 7.69508 -65.2998 50.7477
1468 13.25 14 1.4 7.94337 -59.6276 164.279
1469 13.5 14 1.4 8.19176 -61.2034 -33.9685
1470 13.75 14 1.4 8.44024 -57.7512 146.215
1471 14 14 1.4 8.68881 -60.9887 -44.7462
1472 14.25 14 1.4 8.93746 -55.7064 127.74
1473 14.5 14 1.4 9.18618 -60.9162 -82.9451
1474 14.75 14 1.4 9.43498 -64.1252 51.35
1475 15 14 1.4 9.68383 -77.4339 -152.813
1476 15.25 14 1.4 9.93274 -66.3341 -129.508
1477 15.5 14 1.4 10.1817 -67.9291 -43.5945
1478 15.75 14 1.4 10.4307 -60.8468 64.0648
1479 16 14 1.4 10.6798 -61.5707 -150.067
1480 16.25 14 1.4 10.9289 -62.1672 -42.5907
1481 16.5 14 1.4 11.178 -65.3025 80.1989
1482 16.75 14 1.4 11.4272 -65.503 -170.381
1483 17 14 1.4 11.6764 -63.5619 -111.27
1484 17.25 14 1.4 11.9257 -64.0743 14.8254
1485 17.5 14 1.4 12.1749 -68.8521 104.64
1486 17.75 14 1.4 12.4243 -65.5134 -155.77
1487 18 14 1.4 12.6736 -70.8293 -101.368
1488 18.25 14 1.4 12.923 -67.4959 -0.948591
1489 18.5 14 1.4 13.1723 -71.0702 -62.9998
1490 18.75 14 1.4 13.4217 -73.3622 110.75
1491 19 14 1.4 13.6712 -71.0939 -30.9476
1492 19.25 14 1.4 13.9206 -68.1542 -153.899
1493 19.5 14 1.4 14.1701 -74.916 15.1176
1494 19.75 14 1.4 14.4196 -62.6169 -145.236
1495 20 14 1.4 14.6691 -69.9537 -71.6198
1496 20.25 14 1.4 14.9186 -71.5054 149.373
1497 20.5 14 1.4 15.1681 -63.5215 1.77367
1498 20.75 14 1.4 15.4177 -58.1415 130.728
1499 21 14 1.4 15.6673 -67.3029 -121.881
1500 21.25 14 1.4 15.9168 -72.3472 126.214
1501 21.5 14 1.4 16.1664 -67.7315 -78.9094
1502 21.75 14 1.4 16.416 -68.633 -21.1935
1503 22 14 1.4 16.6657 -73.4763 -0.658708
1504 22.25 14 1.4 16.9153 -73.8168 93.1408
1505 22.5 14 1.4 17.1649 -68.7747 56.3978
1506 22.75 14 1.4 17.4146 -67.375 116.999
1507 23 14 1.4 17.6642 -75.3538 -116.381
1508 23.25 14 1.4 17.9139 -69.0498 79.0889
1509 23.5 14 1.4 18.1636 -73.695 -59.4219
1510 23.75 14 1.4 18.4133 -70.7461 16.0274
1511 24 14 1.4 18.663 -73.2477 -137.583
1512 24.25 14 1.4 18.9127 -80.0756 157.426
1513 -7 14.25 1.4 12.3773 -61.5587 -131.158
1514 -6.75 14.25 1.4 12.1277 -58.307 111.996
1515 -6.5 14.25 1.4 11.878 -64.3615 23.9885
1516 -6.25 14.25 1.4 11.6284 -69.734 -97.0598
1517 -6 14.25 1.4 11.3789 -58.9284 -88.8213
1518 -5.75 14.25 1.4 11.1293 -68.3969 101.047
1519 -5.5 14.25 1.4 10.8797 -62.733 62.763
1520 -5.25 14.25 1.4 10.6302 -59.0722 -102.217
1521 -5 14.25 1.4 10.3807 -64.9944 134.463
1522 -4.75 14.25 1.4 10.1313 -65.8858 34.6058
1523 -4.5 14.25 1.4 9.8818 -62.4239 -94.2136
1524 -4.25 14.25 1.4 9.63238 -61.2458 -179.02
1525 -4 14.25 1.4 9.383 -65.5478 3.37472
1526 -3.75 14.25 1.4 9.13364 -61.7501 -146.607
1527 -3.5 14.25 1.4 8.88432 -64.3426 66.2446
1528 -3.25 14.25 1.4 8.63504 -69.2333 137.471
1529 -3 14.25 1.4 8.3858 -68.1269 65.0044
1530 -2.75 14.25 1.4 8.13661 -60.3726 75.3187
1531 -2.5 14.25 1.4 7.88748 -80.8412 -172.643
1532 -2.25 14.25 1.4 7.63839 -57.1885 45.6375
1533 -2 14.25 1.4 7.38937 -67.8444 -174.049
1534 -1.75 14.25 1.4 7.14042 -65.1643 -33.6294
1535 -1.5 14.25 1.4 6.89154 -65.9422 168.744
1536 -1.25 14.25 1.4 6.64275 -58.6661 -74.7445
1537 -1 14.25 1.4 6.39406 -68.9094 -20.9235
1538 -0.75 14.25 1.4 6.14546 -65.6923 175.254
1539 -0.5 14.25 1.4 5.89699 -75.6748 -152.727
1540 -0.25 14.25 1.4 5.64865 -63.4005 -91.1192
1541 -1.77636e-15 14.25 1.4 5.40047 -67.9602 -129.372
1542 0.25 14.25 1.4 5.15246 -64.0423 -15.4473
1543 0.5 14.25 1.4 4.90465 -61.8842 -17.3065
1544 0.75 14.25 1.4 4.65708 -58.5046 -19.6022
1545 1 14.25 1.4 4.40978 -66.3519 -19.8981
1546 1.25 14.25 1.4 4.16281 -60.3674 19.1617
1547 1.5 14.25 1.4 3.91622 -60.55 29.2226
1548 1.75 14.25 1.4 3.67009 -56.7446 32.6904
1549 2 14.25 1.4 3.42452 -59.9769 -23.457
1550 2.25 14.25 1.4 3.17964 -69.5984 112.27
1551 2.5 14.25 1.4 2.93562 -64.5692 165.172
1552 2.75 14.25 1.4 2.6927 -57.6267 85.4197
1553 3 14.25 1.4 2.45121 -58.7204 51.0695
1554 3.25 14.25 1.4 2.21161 -60.7507 90.0811
1555 3.5 14.25 1.4 1.97458 -54.8992 35.3144
1556 3.75 14.25 1.4 1.7412 -53.0544 -32.3459
1557 4 14.25 1.4 1.51312 -57.2667 -22.3175
1558 4.25 14.25 1.4 1.29318 -45.3028 -109.356
1559 4.5 14.25 1.4 1.08632 -41.3059 147.733
1560 4.75 14.25 1.4 0.901598 -39.352 -44.0361
1561 5 14.25 1.4 0.755419 -36.183 19.679
1562 5.25 14.25 1.4 0.673378 -58.5312 -34.2838
1563 5.5 14.25 1.4 0.679129 -34.6003 106.927
1564 5.75 14.25 1.4 0.770711 -33.9585 -127.917
1565 6 14.25 1.4 0.922917 -36.4517 -142.416
1566 6.25 14.25 1.4 1.11111 -41.2627 58.769
1567 6.5 14.25 1.4 1.31998 -45.2248 -175.391
1568 6.75 14.25 1.4 1.54114 -47.5798 -133.746
1569 7 14.25 1.4 1.77 -55.0268 -81.326
1570 7.25 14.25 1.4 2.00391 -55.301 -66.8099
1571 7.5 14.25 1.4 2.24131 -58.8314 23.6526
1572 7.75 14.25 1.4 2.48118 -65.7751 -78.1302
1573 8 14.25 1.4 2.72287 -56.0905 -51.4027
1574 8.25 14.25 1.4 2.96594 -58.9705 14.0051
1575 8.5 14.25 1.4 3.21007 -66.1308 23.3787
1576 8.75 14.25 1.4 3.45505 -62.3247 -111.847
1577 9 14.25 1.4 3.70069 -57.9148 -143.355
1578 9.25 14.25 1.4 3.94689 -56.5099 -91.7125
1579 9.5 14.25 1.4 4.19353 -56.8422 -97.0293
1580 9.75 14.25 1.4 4.44055 -56.7996 -90.5584
1581 10 14.25 1.4 4.68788 -57.1897 -105.809
1582 10.25 14.25 1.4 4.93549 -57.4125 -146.436
1583 10.5 14.25 1.4 5.18332 -79.7017 133.818
1584 10.75 14.25 1.4 5.43135 -69.743 145.05
1585 11 14.25 1.4 5.67956 -65.1332 -156.431
1586 11.25 14.25 1.4 5.92791 -66.3138 -126.408
1587 11.5 14.25 1.4 6.1764 -86.0446 -37.1943
1588 11.75 14.25 1.4 6.42501 -71.6818 132.255
1589 12 14.25 1.4 6.67372 -60.9092 123.655
1590 12.25 14.25 1.4 6.92252 -73.569 72.1929
1591 12.5 14.25 1.4 7.1714 -63.5861 -157.406
1592 12.75 14.25 1.4 7.42037 -63.8342 44.9822
1593 13 14.25 1.4 7.66939 -62.0429 -39.4704
1594 13.25 14.25 1.4 7.91848 -72.6381 101.879
1595 13.5 14.25 1.4 8.16763 -71.1004 171.673
1596 13.75 14.25 1.4 8.41682 -59.4176 -11.9047
1597 14 14.25 1.4 8.66607 -59.568 -173.678
1598 14.25 14.25 1.4 8.91535 -62.0907 -26.6744
1599 14.5 14.25 1.4 9.16468 -62.8603 120.913
1600 14.75 14.25 1.4 9.41404 -56.9644 -87.4996
1601 15 14.25 1.4 9.66343 -57.5815 57.2345
1602 15.25 14.25 1.4 9.91285 -57.4074 -163.022
1603 15.5 14.25 1.4 10.1623 -60.2201 -33.7069
1604 15.75 14.25 1.4 10.4118 -59.3122 88.9298
1605 16 14.25 1.4 10.6613 -58.5356 -169.23
1606 16.25 14.25 1.4 10.9108 -60.1867 -36.9749
1607 16.5 14.25 1.4 11.1604 -60.3936 85.5091
1608 16.75 14.25 1.4 11.4099 -63.3457 -156.917
1609 17 14.25 1.4 11.6595 -65.9817 -56.5619
1610 17.25 14.25 1.4 11.9091 -74.6819 55.4981
1611 17.5 14.25 1.4 12.1587 -73.0767 44.6789
1612 17.75 14.25 1.4 12.4084 -67.002 -119.165
1613 18 14.25 1.4 12.658 -77.9669 29.7439
1614 18.25 14.25 1.4 12.9077 -73.6167 -51.2382
1615 18.5 14.25 1.4 13.1573 -72.6605 57.0379
1616 18.75 14.25 1.4 13.407 -75.8277 -65.6892
1617 19 14.25 1.4 13.6567 -73.0145 147.242
1618 19.25 14.25 1.4 13.9064 -91.1803 -119.56
1619 19.5 14.25 1.4 14.1562 -71.3326 167.8
1620 19.75 14.25 1.4 14.4059 -70.4376 -142.198
1621 20 14.25 1.4 14.6556 -71.2693 45.5664
1622 20.25 14.25 1.4 14.9054 -65.4453 -41.9399
1623 20.5 14.25 1.4 15.1551 -65.1031 60.4498
1624 20.75 14.25 1.4 15.4049 -65.3753 162.65
1625 21 14.25 1.4 15.6547 -70.6044 -28.4302
1626 21.25 14.25 1.4 15.9044 -62.4484 153.595
1627 21.5 14.25 1.4 16.1542 -61.0884 -64.5221
1628 21.75 14.25 1.4 16.404 -63.6764 41.0506
1629 22 14.25 1.4 16.6538 -70.1301 -129.342
1630 22.25 14.25 1.4 16.9036 -65.0034 18.6634
1631 22.5 14.25 1.4 17.1534 -60.5592 118.455
1632 22.75 14.25 1.4 17.4032 -68.9276 -106.471
1633 23 14.25 1.4 17.6531 -68.0674 129.12
1634 23.25 14.25 1.4 17.9029 -63.8202 -129.129
1635 23.5 14.25 1.4 18.1527 -68.2363 -95.953
1636 23.75 14.25 1.4 18.4026 -66.5369 -81.6772
1637 24 14.25 1.4 18.6524 -63.3946 -3.26192
1638 24.25 14.25 1.4 18.9022 -80.2196 169.312
