#Rx
# X(m), Y(m), Z(m), Distance(m), Power (dBm) Phase (deg)
1 -7 11.25 1.4 4.95602 -59.1656 131.457
2 -6.75 11.25 1.4 4.94937 -54.4667 155.184
3 -6.5 11.25 1.4 4.95533 -61.7892 166.682
4 -6.25 11.25 1.4 4.97387 -47.3896 74.0432
5 -6 11.25 1.4 5.00485 -55.226 -61.2743
6 -5.75 11.25 1.4 5.04803 -47.5786 -97.3545
7 -5.5 11.25 1.4 5.1031 -47.9275 23.6483
8 -5.25 11.25 1.4 5.1697 -51.2985 114.672
9 -5 11.25 1.4 5.24736 -67.9388 4.16685
10 -4.75 11.25 1.4 5.33563 -43.7031 75.4672
11 -4.5 11.25 1.4 5.43397 -44.4729 114.426
12 -4.25 11.25 1.4 5.54185 -48.2164 150.501
13 -4 11.25 1.4 5.65873 -48.2866 -142.312
14 -3.75 11.25 1.4 5.78405 -45.6249 -168.687
15 -3.5 11.25 1.4 5.91729 -50.9907 136.733
16 -3.25 11.25 1.4 6.05793 -61.3499 62.0196
17 -3 11.25 1.4 6.20545 -57.698 91.3592
18 -2.75 11.25 1.4 6.35937 -65.4662 -88.9025
19 -2.5 11.25 1.4 6.51926 -50.1543 162.153
20 -2.25 11.25 1.4 6.68467 -56.1921 54.8716
21 -2 11.25 1.4 6.85521 -62.8497 154.729
22 -1.75 11.25 1.4 7.0305 -73.0294 -129.705
23 -1.5 11.25 1.4 7.21021 -53.7759 -98.1427
24 -1.25 11.25 1.4 7.394 -51.4228 58.6435
25 -1 11.25 1.4 7.58157 -55.533 -66.8493
26 -0.75 11.25 1.4 7.77267 -50.9068 44.0553
27 -0.5 11.25 1.4 7.96702 -52.3054 160.16
28 -0.25 11.25 1.4 8.16441 -52.5427 -23.3284
29 -1.77636e-15 11.25 1.4 8.36461 -48.7788 134.178
30 0.25 11.25 1.4 8.56742 -47.8728 -108.776
31 0.5 11.25 1.4 8.77267 -49.7847 18.2106
32 0.75 11.25 1.4 8.98019 -49.3714 152.843
33 1 11.25 1.4 9.18983 -49.9745 -94.507
34 1.25 11.25 1.4 9.40144 -50.3402 5.69052
35 1.5 11.25 1.4 9.61489 -55.4398 80.0978
36 1.75 11.25 1.4 9.83007 -67.5025 8.04608
37 2 11.25 1.4 10.0469 -66.4772 5.65337
38 2.25 11.25 1.4 10.2652 -59.9733 118.713
39 2.5 11.25 1.4 10.4849 -63.2373 -178.237
40 2.75 11.25 1.4 10.7059 -60.7351 -70.8993
41 3 11.25 1.4 10.9282 -57.5222 -13.1965
42 3.25 11.25 1.4 11.1517 -55.7441 47.8123
43 3.5 11.25 1.4 11.3762 -54.6616 110.118
44 3.75 11.25 1.4 11.6019 -55.8987 138.42
45 4 11.25 1.4 11.8284 -60.8095 -137.996
46 4.25 11.25 1.4 12.056 -55.7694 -132.192
47 4.5 11.25 1.4 12.2843 -61.924 7.13039
48 4.75 11.25 1.4 12.5136 -63.6689 -62.1173
49 5 11.25 1.4 12.7436 -58.84 -28.3927
50 5.25 11.25 1.4 12.9743 -64.1956 -144.737
51 5.5 11.25 1.4 13.2057 -60.0278 56.4464
52 5.75 11.25 1.4 13.4378 -67.9775 52.5876
53 6 11.25 1.4 13.6706 -63.0898 87.3633
54 6.25 11.25 1.4 13.9039 -57.6302 103.065
55 6.5 11.25 1.4 14.1378 -58.0329 104.835
56 6.75 11.25 1.4 14.3723 -70.944 125.931
57 7 11.25 1.4 14.6072 -55.5385 108.985
58 7.25 11.25 1.4 14.8427 -60.6644 -163.026
59 7.5 11.25 1.4 15.0786 -59.6609 100.276
60 7.75 11.25 1.4 15.315 -59.1096 -178.837
61 8 11.25 1.4 15.5518 -59.8766 13.7527
62 8.25 11.25 1.4 15.789 -60.4102 135.691
63 8.5 11.25 1.4 16.0266 -54.8007 -24.9888
64 8.75 11.25 1.4 16.2645 -58.3351 48.3626
65 9 11.25 1.4 16.5028 -61.1648 -41.0921
66 9.25 11.25 1.4 16.7415 -53.7543 30.7974
67 9.5 11.25 1.4 16.9805 -59.8422 113.76
68 9.75 11.25 1.4 17.2198 -58.5005 16.1126
69 10 11.25 1.4 17.4594 -53.1773 53.5604
70 10.25 11.25 1.4 17.6993 -64.6278 172.65
71 10.5 11.25 1.4 17.9394 -55.2324 -15.8475
72 10.75 11.25 1.4 18.1799 -55.4845 70.7963
73 11 11.25 1.4 18.4205 -59.7419 -141.413
74 11.25 11.25 1.4 18.6615 -56.9652 -25.4931
75 11.5 11.25 1.4 18.9026 -57.5755 49.0433
76 11.75 11.25 1.4 19.144 -70.8843 163.593
77 12 11.25 1.4 19.3856 -57.5173 -57.4927
78 12.25 11.25 1.4 19.6275 -59.9365 9.32326
79 12.5 11.25 1.4 19.8695 -74.6601 78.1979
80 12.75 11.25 1.4 20.1117 -70.592 137.857
81 13 11.25 1.4 20.3541 -63.7905 -76.4258
82 13.25 11.25 1.4 20.5967 -63.3148 -21.2979
83 13.5 11.25 1.4 20.8394 -64.9932 72.4784
84 13.75 11.25 1.4 21.0824 -62.9447 -74.2954
85 14 11.25 1.4 21.3255 -62.1771 -33.114
86 14.25 11.25 1.4 21.5687 -63.3192 -59.2318
87 14.5 11.25 1.4 21.8121 -67.4503 -79.0992
88 14.75 11.25 1.4 22.0557 -65.0088 -55.5337
89 15 11.25 1.4 22.2994 -62.6201 -9.34919
90 15.25 11.25 1.4 22.5432 -79.8816 147.446
91 15.5 11.25 1.4 22.7872 -63.0754 -48.1139
92 15.75 11.25 1.4 23.0313 -69.9953 -59.0129
93 16 11.25 1.4 23.2755 -65.6297 -70.5495
94 16.25 11.25 1.4 23.5198 -69.8541 153.396
95 16.5 11.25 1.4 23.7643 -68.5276 -170.781
96 16.75 11.25 1.4 24.0089 -62.1665 -137.721
97 17 11.25 1.4 24.2535 -59.7618 -130.023
98 17.25 11.25 1.4 24.4983 -59.386 -56.8042
99 17.5 11.25 1.4 24.7432 -67.3294 5.84347
100 17.75 11.25 1.4 24.9882 -82.8343 124.22
101 18 11.25 1.4 25.2333 -66.8582 54.8935
102 18.25 11.25 1.4 25.4785 -70.4338 -131.227
103 18.5 11.25 1.4 25.7238 -66.1737 -86.5626
104 18.75 11.25 1.4 25.9692 -71.1794 -81.439
105 19 11.25 1.4 26.2146 -66.2697 -71.1334
106 19.25 11.25 1.4 26.4602 -79.6676 -95.1862
107 19.5 11.25 1.4 26.7058 -69.9073 142.141
108 19.75 11.25 1.4 26.9515 -65.311 -172.36
109 20 11.25 1.4 27.1973 -69.4771 -164.006
110 20.25 11.25 1.4 27.4432 -67.1827 -135.677
111 20.5 11.25 1.4 27.6891 -67.9183 -82.2123
112 20.75 11.25 1.4 27.9351 -69.5537 -89.9896
113 21 11.25 1.4 28.1812 -73.0681 -128.892
114 21.25 11.25 1.4 28.4273 -68.6133 -140.102
115 21.5 11.25 1.4 28.6736 -74.007 -11.7292
116 21.75 11.25 1.4 28.9198 -72.4561 -173.635
117 22 11.25 1.4 29.1662 -76.3919 107.795
118 22.25 11.25 1.4 29.4126 -67.5589 59.1846
119 22.5 11.25 1.4 29.6591 -69.0368 86.4584
120 22.75 11.25 1.4 29.9056 -70.4809 83.5313
121 23 11.25 1.4 30.1522 -65.7557 146.551
122 23.25 11.25 1.4 30.3988 -76.6172 125.27
123 23.5 11.25 1.4 30.6455 -70.4254 46.5273
124 23.75 11.25 1.4 30.8922 -64.1062 103.101
125 24 11.25 1.4 31.139 -68.1101 -146.764
126 24.25 11.25 1.4 31.3859 -67.0003 -46.4598
127 -7 11.5 1.4 4.70637 -52.294 156.099
128 -6.75 11.5 1.4 4.69937 -52.2889 142.131
129 -6.5 11.5 1.4 4.70565 -53.1227 -155.827
130 -6.25 11.5 1.4 4.72517 -45.2949 79.7107
131 -6 11.5 1.4 4.75776 -62.7166 -117.845
132 -5.75 11.5 1.4 4.80316 -43.3015 -99.6532
133 -5.5 11.5 1.4 4.86102 -43.55 10.5762
134 -5.25 11.5 1.4 4.93088 -52.2026 94.4741
135 -5 11.5 1.4 5.01225 -54.1761 -31.2071
136 -4.75 11.5 1.4 5.10458 -45.0349 24.7767
137 -4.5 11.5 1.4 5.20729 -54.5624 112.264
138 -4.25 11.5 1.4 5.31977 -46.2018 -177.255
139 -4 11.5 1.4 5.44142 -48.7385 164.382
140 -3.75 11.5 1.4 5.57163 -50.115 59.1742
141 -3.5 11.5 1.4 5.70983 -50.0886 -41.1086
142 -3.25 11.5 1.4 5.85545 -53.5957 -33.8154
143 -3 11.5 1.4 6.00794 -48.7426 -69.9559
144 -2.75 11.5 1.4 6.1668 -51.4637 151.401
145 -2.5 11.5 1.4 6.33155 -54.1649 -18.1639
146 -2.25 11.5 1.4 6.50174 -52.0396 -168.587
147 -2 11.5 1.4 6.67696 -58.3745 93.2922
148 -1.75 11.5 1.4 6.85681 -50.419 -150.685
149 -1.5 11.5 1.4 7.04095 -50.5803 -0.28002
150 -1.25 11.5 1.4 7.22904 -50.1419 -137.087
151 -1 11.5 1.4 7.42079 -49.0711 10.0157
152 -0.75 11.5 1.4 7.61592 -55.7605 -166.015
153 -0.5 11.5 1.4 7.81417 -50.4901 1.55357
154 -0.25 11.5 1.4 8.01532 -52.9225 136
155 -1.77636e-15 11.5 1.4 8.21915 -57.6481 -169.744
156 0.25 11.5 1.4 8.42547 -58.3793 -33.8131
157 0.5 11.5 1.4 8.6341 -52.1825 53.8046
158 0.75 11.5 1.4 8.84487 -49.4771 139.829
159 1 11.5 1.4 9.05764 -50.6524 -116.014
160 1.25 11.5 1.4 9.27226 -50.9888 -27.1907
161 1.5 11.5 1.4 9.48862 -51.4425 95.1101
162 1.75 11.5 1.4 9.7066 -52.7061 -174.19
163 2 11.5 1.4 9.92608 -60.538 -95.5473
164 2.25 11.5 1.4 10.147 -64.7539 166.004
165 2.5 11.5 1.4 10.3692 -53.0417 -179.48
166 2.75 11.5 1.4 10.5927 -53.1967 -124.792
167 3 11.5 1.4 10.8173 -53.3523 -36.195
168 3.25 11.5 1.4 11.043 -56.8629 15.1086
169 3.5 11.5 1.4 11.2697 -58.8582 91.4528
170 3.75 11.5 1.4 11.4974 -56.2299 -172.337
171 4 11.5 1.4 11.726 -58.6462 -151.318
172 4.25 11.5 1.4 11.9555 -58.2366 -28.1632
173 4.5 11.5 1.4 12.1858 -66.7513 -43.9366
174 4.75 11.5 1.4 12.4168 -63.6162 18.0609
175 5 11.5 1.4 12.6486 -63.0918 -170.379
176 5.25 11.5 1.4 12.881 -65.5857 -12.6953
177 5.5 11.5 1.4 13.1141 -57.09 -129.795
178 5.75 11.5 1.4 13.3478 -63.7092 -91.8985
179 6 11.5 1.4 13.5821 -57.1 -91.2043
180 6.25 11.5 1.4 13.8169 -60.5672 -83.0507
181 6.5 11.5 1.4 14.0523 -55.0196 -86.3832
182 6.75 11.5 1.4 14.2881 -60.616 -53.1528
183 7 11.5 1.4 14.5244 -56.6102 -102.791
184 7.25 11.5 1.4 14.7612 -59.8994 -5.85225
185 7.5 11.5 1.4 14.9984 -58.7501 -118.643
186 7.75 11.5 1.4 15.236 -58.5935 -22.8897
187 8 11.5 1.4 15.474 -59.6244 176.476
188 8.25 11.5 1.4 15.7124 -61.6372 -98.0791
189 8.5 11.5 1.4 15.9511 -59.2461 138.913
190 8.75 11.5 1.4 16.1902 -57.5876 -142.145
191 9 11.5 1.4 16.4296 -64.0613 175.615
192 9.25 11.5 1.4 16.6693 -58.9016 -174.119
193 9.5 11.5 1.4 16.9093 -61.2172 -158.482
194 9.75 11.5 1.4 17.1496 -67.204 -104.171
195 10 11.5 1.4 17.3902 -58.4413 177.914
196 10.25 11.5 1.4 17.631 -54.0524 -140.461
197 10.5 11.5 1.4 17.8721 -61.8572 -78.2385
198 10.75 11.5 1.4 18.1134 -58.5531 155.033
199 11 11.5 1.4 18.355 -52.1863 -165.36
200 11.25 11.5 1.4 18.5967 -56.5992 -63.294
201 11.5 11.5 1.4 18.8387 -57.2916 105.196
202 11.75 11.5 1.4 19.0809 -53.9369 -176.503
203 12 11.5 1.4 19.3233 -57.069 -111.31
204 12.25 11.5 1.4 19.5659 -65.3451 21.7189
205 12.5 11.5 1.4 19.8087 -58.903 122.999
206 12.75 11.5 1.4 20.0516 -55.827 -168.912
207 13 11.5 1.4 20.2948 -66.3907 -135.65
208 13.25 11.5 1.4 20.538 -68.7517 46.5116
209 13.5 11.5 1.4 20.7815 -58.9285 147.325
210 13.75 11.5 1.4 21.0251 -60.8853 -177.367
211 14 11.5 1.4 21.2688 -72.805 -47.0657
212 14.25 11.5 1.4 21.5127 -65.2452 65.0123
213 14.5 11.5 1.4 21.7568 -66.6719 155.984
214 14.75 11.5 1.4 22.0009 -67.0217 62.8654
215 15 11.5 1.4 22.2452 -66.7142 75.5437
216 15.25 11.5 1.4 22.4896 -64.7963 167.534
217 15.5 11.5 1.4 22.7342 -73.0406 -128.607
218 15.75 11.5 1.4 22.9788 -64.9548 -21.7143
219 16 11.5 1.4 23.2236 -66.9917 30.2235
220 16.25 11.5 1.4 23.4685 -72.9623 8.72775
221 16.5 11.5 1.4 23.7135 -61.6079 85.413
222 16.75 11.5 1.4 23.9586 -61.7127 157.92
223 17 11.5 1.4 24.2038 -63.6291 -131.915
224 17.25 11.5 1.4 24.4491 -71.6013 -46.0801
225 17.5 11.5 1.4 24.6944 -62.4502 13.7259
226 17.75 11.5 1.4 24.9399 -60.9059 61.8918
227 18 11.5 1.4 25.1855 -65.086 106.872
228 18.25 11.5 1.4 25.4311 -74.7725 105.902
229 18.5 11.5 1.4 25.6769 -71.7968 150.598
230 18.75 11.5 1.4 25.9227 -71.2849 -159.818
231 19 11.5 1.4 26.1686 -68.3385 -0.260461
232 19.25 11.5 1.4 26.4146 -65.8871 15.5103
233 19.5 11.5 1.4 26.6606 -73.4821 43.0256
234 19.75 11.5 1.4 26.9067 -71.8975 -13.6524
235 20 11.5 1.4 27.1529 -85.7284 170.726
236 20.25 11.5 1.4 27.3992 -69.868 -133.061
237 20.5 11.5 1.4 27.6455 -64.3321 -60.8037
238 20.75 11.5 1.4 27.8919 -74.1322 -60.4306
239 21 11.5 1.4 28.1384 -66.1223 -140.4
240 21.25 11.5 1.4 28.3849 -67.1122 -87.9746
241 21.5 11.5 1.4 28.6315 -65.748 -136.821
242 21.75 11.5 1.4 28.8781 -63.2403 -130.755
243 22 11.5 1.4 29.1248 -64.8459 -147.966
244 22.25 11.5 1.4 29.3716 -67.1309 -115.271
245 22.5 11.5 1.4 29.6184 -71.442 176.24
246 22.75 11.5 1.4 29.8652 -65.6029 -176.732
247 23 11.5 1.4 30.1121 -67.0528 171.57
248 23.25 11.5 1.4 30.3591 -73.183 102.088
249 23.5 11.5 1.4 30.6061 -64.5244 77.7413
250 23.75 11.5 1.4 30.8532 -62.2296 117.861
251 24 11.5 1.4 31.1003 -63.8091 108.941
252 24.25 11.5 1.4 31.3474 -67.7344 80.2871
253 -7 11.75 1.4 4.45677 -51.7604 -134.781
254 -6.75 11.75 1.4 4.44937 -46.4757 -147.191
255 -6.5 11.75 1.4 4.456 -45.8511 -155.532
256 -6.25 11.75 1.4 4.47661 -46.3928 69.8937
257 -6 11.75 1.4 4.511 -49.6828 121.505
258 -5.75 11.75 1.4 4.55886 -43.7153 -99.8068
259 -5.5 11.75 1.4 4.61977 -44.7235 -30.6838
260 -5.25 11.75 1.4 4.69323 -50.0704 96.4855
261 -5 11.75 1.4 4.77865 -42.7167 -91.655
262 -4.75 11.75 1.4 4.8754 -45.0779 -13.755
263 -4.5 11.75 1.4 4.98284 -84.2048 -24.504
264 -4.25 11.75 1.4 5.10027 -50.0342 28.805
265 -4 11.75 1.4 5.22703 -42.9807 -4.48414
266 -3.75 11.75 1.4 5.36246 -49.3481 -40.3485
267 -3.5 11.75 1.4 5.50591 -60.3749 55.163
268 -3.25 11.75 1.4 5.65677 -59.3276 -148.847
269 -3 11.75 1.4 5.81448 -48.6957 77.9267
270 -2.75 11.75 1.4 5.97848 -48.3575 -23.8445
271 -2.5 11.75 1.4 6.14828 -53.2733 -149.414
272 -2.25 11.75 1.4 6.32341 -53.0669 22.6883
273 -2 11.75 1.4 6.50343 -50.8427 -151.693
274 -1.75 11.75 1.4 6.68795 -55.1748 7.06849
275 -1.5 11.75 1.4 6.87661 -47.1621 -176.529
276 -1.25 11.75 1.4 7.06907 -53.5897 -6.39306
277 -1 11.75 1.4 7.26505 -51.854 -172.588
278 -0.75 11.75 1.4 7.46425 -52.4652 -72.6814
279 -0.5 11.75 1.4 7.66643 -62.7213 -13.0812
280 -0.25 11.75 1.4 7.87135 -52.685 138.936
281 -1.77636e-15 11.75 1.4 8.07882 -48.1916 -100.589
282 0.25 11.75 1.4 8.28863 -46.2834 1.01158
283 0.5 11.75 1.4 8.50061 -53.6789 104.591
284 0.75 11.75 1.4 8.71462 -60.8198 -172.781
285 1 11.75 1.4 8.93049 -57.4305 -110.762
286 1.25 11.75 1.4 9.1481 -52.9794 -60.4877
287 1.5 11.75 1.4 9.36733 -53.3481 36.5486
288 1.75 11.75 1.4 9.58806 -56.4278 135.859
289 2 11.75 1.4 9.8102 -60.5276 -81.7602
290 2.25 11.75 1.4 10.0336 -53.5614 44.5553
291 2.5 11.75 1.4 10.2583 -55.3688 97.7636
292 2.75 11.75 1.4 10.4841 -56.4724 -134.58
293 3 11.75 1.4 10.711 -58.9543 -66.0645
294 3.25 11.75 1.4 10.9389 -53.0474 27.8245
295 3.5 11.75 1.4 11.1678 -54.7919 91.6313
296 3.75 11.75 1.4 11.3975 -53.6973 153.927
297 4 11.75 1.4 11.6281 -58.3106 -45.3333
298 4.25 11.75 1.4 11.8595 -58.3154 36.7795
299 4.5 11.75 1.4 12.0916 -53.6719 53.2022
300 4.75 11.75 1.4 12.3244 -52.7883 97.8466
301 5 11.75 1.4 12.5578 -54.7964 94.4885
302 5.25 11.75 1.4 12.7919 -58.4158 140.538
303 5.5 11.75 1.4 13.0266 -56.8747 64.8808
304 5.75 11.75 1.4 13.2618 -72.45 167.233
305 6 11.75 1.4 13.4976 -58.3669 63.3503
306 6.25 11.75 1.4 13.7339 -72.3379 168
307 6.5 11.75 1.4 13.9706 -62.4568 44.8004
308 6.75 11.75 1.4 14.2078 -77.3921 -95.5515
309 7 11.75 1.4 14.4455 -58.2629 21.7225
310 7.25 11.75 1.4 14.6835 -69.2282 8.51692
311 7.5 11.75 1.4 14.922 -60.5077 -13.4815
312 7.75 11.75 1.4 15.1608 -66.9782 66.3844
313 8 11.75 1.4 15.3999 -64.8366 -69.6549
314 8.25 11.75 1.4 15.6394 -60.5461 31.31
315 8.5 11.75 1.4 15.8793 -66.0419 102.315
316 8.75 11.75 1.4 16.1194 -62.9913 -80.9444
317 9 11.75 1.4 16.3598 -56.8806 33.62
318 9.25 11.75 1.4 16.6006 -62.4031 -166.487
319 9.5 11.75 1.4 16.8415 -54.2803 -20.2826
320 9.75 11.75 1.4 17.0828 -54.8497 55.6071
321 10 11.75 1.4 17.3243 -63.1887 -95.9364
322 10.25 11.75 1.4 17.566 -53.9426 2.85454
323 10.5 11.75 1.4 17.808 -54.3107 62.7262
324 10.75 11.75 1.4 18.0502 -67.1283 42.4167
325 11 11.75 1.4 18.2925 -58.4663 -8.8188
326 11.25 11.75 1.4 18.5351 -58.2281 24.7267
327 11.5 11.75 1.4 18.7779 -57.134 44.1728
328 11.75 11.75 1.4 19.0209 -61.8203 107.244
329 12 11.75 1.4 19.264 -59.207 -61.0375
330 12.25 11.75 1.4 19.5074 -54.0464 10.4873
331 12.5 11.75 1.4 19.7509 -56.1537 73.3141
332 12.75 11.75 1.4 19.9945 -64.2863 -107.799
333 13 11.75 1.4 20.2383 -54.2562 -53.9762
334 13.25 11.75 1.4 20.4823 -55.993 1.55539
335 13.5 11.75 1.4 20.7264 -66.2296 -17.3402
336 13.75 11.75 1.4 20.9706 -60.3201 -58.3349
337 14 11.75 1.4 21.215 -60.193 -48.2303
338 14.25 11.75 1.4 21.4595 -59.561 -7.5406
339 14.5 11.75 1.4 21.7041 -63.0698 -15.2639
340 14.75 11.75 1.4 21.9489 -64.1913 -34.3647
341 15 11.75 1.4 22.1938 -62.0778 -49.5742
342 15.25 11.75 1.4 22.4387 -63.587 -118.708
343 15.5 11.75 1.4 22.6838 -61.4208 -120.938
344 15.75 11.75 1.4 22.929 -56.1122 -64.9722
345 16 11.75 1.4 23.1743 -60.6038 -59.767
346 16.25 11.75 1.4 23.4197 -63.8798 -21.9289
347 16.5 11.75 1.4 23.6652 -68.2979 38.624
348 16.75 11.75 1.4 23.9108 -75.264 -71.743
349 17 11.75 1.4 24.1565 -63.4828 -116.191
350 17.25 11.75 1.4 24.4022 -61.0485 -119.41
351 17.5 11.75 1.4 24.6481 -63.9177 -41.6194
352 17.75 11.75 1.4 24.894 -74.1868 28.4747
353 18 11.75 1.4 25.14 -62.3145 171.396
354 18.25 11.75 1.4 25.3861 -70.2828 -173.428
355 18.5 11.75 1.4 25.6323 -61.624 -153.537
356 18.75 11.75 1.4 25.8785 -65.7406 -119.184
357 19 11.75 1.4 26.1249 -68.7448 -54.4069
358 19.25 11.75 1.4 26.3712 -77.8775 -32.389
359 19.5 11.75 1.4 26.6177 -72.8528 24.8771
360 19.75 11.75 1.4 26.8642 -67.8865 22.0486
361 20 11.75 1.4 27.1108 -76.1635 20.9094
362 20.25 11.75 1.4 27.3574 -71.3527 43.8738
363 20.5 11.75 1.4 27.6041 -66.2209 34.1725
364 20.75 11.75 1.4 27.8509 -67.9253 128.895
365 21 11.75 1.4 28.0977 -66.9091 92.401
366 21.25 11.75 1.4 28.3446 -67.8772 57.8882
367 21.5 11.75 1.4 28.5915 -73.0444 79.2903
368 21.75 11.75 1.4 28.8385 -73.3785 -106.195
369 22 11.75 1.4 29.0855 -72.5809 -86.6543
370 22.25 11.75 1.4 29.3326 -71.7769 -123.123
371 22.5 11.75 1.4 29.5797 -66.2351 -138.546
372 22.75 11.75 1.4 29.8269 -67.1173 -163.546
373 23 11.75 1.4 30.0741 -65.0394 -135.08
374 23.25 11.75 1.4 30.3214 -72.7906 -63.935
375 23.5 11.75 1.4 30.5687 -67.1086 124.536
376 23.75 11.75 1.4 30.8161 -78.9676 -165.028
377 24 11.75 1.4 31.0635 -74.25 -67.4444
378 24.25 11.75 1.4 31.3109 -76.9376 -59.3248
379 -7 12 1.4 4.20721 -46.2297 -155.581
380 -6.75 12 1.4 4.19937 -46.2013 165.333
381 -6.5 12 1.4 4.2064 -43.1514 -155.851
382 -6.25 12 1.4 4.22822 -43.8464 79.3284
383 -6 12 1.4 4.26462 -46.379 49.533
384 -5.75 12 1.4 4.31521 -42.3953 -120.184
385 -5.5 12 1.4 4.37951 -57.3638 -43.708
386 -5.25 12 1.4 4.45693 -46.5575 167.023
387 -5 12 1.4 4.54679 -41.7428 -132.653
388 -4.75 12 1.4 4.64837 -52.0314 -97.1636
389 -4.5 12 1.4 4.76093 -49.1879 -25.1415
390 -4.25 12 1.4 4.8837 -43.4549 -28.7426
391 -4 12 1.4 5.01594 -49.3212 -59.0848
392 -3.75 12 1.4 5.15691 -55.2802 22.4613
393 -3.5 12 1.4 5.30592 -51.9705 -152.356
394 -3.25 12 1.4 5.46232 -48.3258 86.3535
395 -3 12 1.4 5.62548 -55.7709 -121.53
396 -2.75 12 1.4 5.79483 -48.2081 125.511
397 -2.5 12 1.4 5.96986 -47.4561 -13.8508
398 -2.25 12 1.4 6.15006 -54.9862 -138.72
399 -2 12 1.4 6.33501 -50.9144 -1.81509
400 -1.75 12 1.4 6.5243 -47.081 127.705
401 -1.5 12 1.4 6.71756 -54.2613 -27.6731
402 -1.25 12 1.4 6.91445 -49.1515 144.106
403 -1 12 1.4 7.11468 -57.6073 140.041
404 -0.75 12 1.4 7.31798 -51.3515 -57.7682
405 -0.5 12 1.4 7.52409 -47.7579 109.974
406 -0.25 12 1.4 7.73279 -47.5955 -138.32
407 -1.77636e-15 12 1.4 7.94387 -55.9663 -47.2794
408 0.25 12 1.4 8.15715 -52.8335 -30.0255
409 0.5 12 1.4 8.37247 -49.6666 94.349
410 0.75 12 1.4 8.58967 -50.4474 -175.207
411 1 12 1.4 8.8086 -54.5318 -126.462
412 1.25 12 1.4 9.02915 -58.5261 -137.009
413 1.5 12 1.4 9.2512 -56.7404 -63.1864
414 1.75 12 1.4 9.47463 -64.5198 75.917
415 2 12 1.4 9.69937 -59.1206 -125.229
416 2.25 12 1.4 9.92532 -54.4325 -23.993
417 2.5 12 1.4 10.1524 -56.3961 106.977
418 2.75 12 1.4 10.3805 -53.126 178.487
419 3 12 1.4 10.6096 -51.7902 -98.6148
420 3.25 12 1.4 10.8397 -58.1349 -99.6278
421 3.5 12 1.4 11.0706 -51.8459 145.213
422 3.75 12 1.4 11.3023 -50.0806 -134.607
423 4 12 1.4 11.5348 -49.7953 -116.139
424 4.25 12 1.4 11.7679 -52.0092 -72.6949
425 4.5 12 1.4 12.0018 -67.8786 -67.6732
426 4.75 12 1.4 12.2363 -64.7587 -129.008
427 5 12 1.4 12.4714 -54.2483 -140.774
428 5.25 12 1.4 12.7071 -59.2879 -95.7582
429 5.5 12 1.4 12.9433 -58.8835 -95.8239
430 5.75 12 1.4 13.1801 -59.2884 36.5249
431 6 12 1.4 13.4173 -71.9843 -153.639
432 6.25 12 1.4 13.6549 -60.913 92.698
433 6.5 12 1.4 13.893 -61.3594 152.766
434 6.75 12 1.4 14.1315 -72.1762 6.74528
435 7 12 1.4 14.3704 -71.5259 138.554
436 7.25 12 1.4 14.6097 -64.8944 -119.876
437 7.5 12 1.4 14.8493 -69.6185 119.869
438 7.75 12 1.4 15.0893 -57.7591 173.525
439 8 12 1.4 15.3296 -66.1514 -63.6262
440 8.25 12 1.4 15.5702 -64.0519 136.918
441 8.5 12 1.4 15.811 -60.6174 -108.759
442 8.75 12 1.4 16.0522 -64.7234 48.8485
443 9 12 1.4 16.2936 -59.7833 -154.01
444 9.25 12 1.4 16.5353 -64.8373 -76.2325
445 9.5 12 1.4 16.7772 -84.429 -25.022
446 9.75 12 1.4 17.0194 -61.512 139.917
447 10 12 1.4 17.2618 -57.138 -150.047
448 10.25 12 1.4 17.5044 -67.937 -27.4049
449 10.5 12 1.4 17.7472 -54.8746 138.955
450 10.75 12 1.4 17.9902 -52.6439 -148.278
451 11 12 1.4 18.2333 -65.9862 -89.6835
452 11.25 12 1.4 18.4767 -60.1696 140.361
453 11.5 12 1.4 18.7203 -58.5427 -174.946
454 11.75 12 1.4 18.964 -62.2869 -142.771
455 12 12 1.4 19.2078 -61.5983 -99.2407
456 12.25 12 1.4 19.4519 -64.7065 -16.0316
457 12.5 12 1.4 19.6961 -57.9948 128.095
458 12.75 12 1.4 19.9404 -57.2811 -163.815
459 13 12 1.4 20.1848 -59.9275 -110.685
460 13.25 12 1.4 20.4294 -70.0986 78.793
461 13.5 12 1.4 20.6742 -59.6548 100.286
462 13.75 12 1.4 20.919 -66.0114 -178.253
463 14 12 1.4 21.164 -62.2232 -136.01
464 14.25 12 1.4 21.4091 -67.9289 -82.5641
465 14.5 12 1.4 21.6543 -69.5921 12.7441
466 14.75 12 1.4 21.8996 -67.4429 156.104
467 15 12 1.4 22.145 -71.6224 97.2085
468 15.25 12 1.4 22.3905 -63.5415 86.1157
469 15.5 12 1.4 22.6361 -66.5268 151.589
470 15.75 12 1.4 22.8818 -59.3496 -169.805
471 16 12 1.4 23.1276 -62.6314 -67.9615
472 16.25 12 1.4 23.3735 -63.1217 56.2441
473 16.5 12 1.4 23.6195 -63.7699 62.7101
474 16.75 12 1.4 23.8655 -64.0413 45.0313
475 17 12 1.4 24.1117 -66.5695 55.8853
476 17.25 12 1.4 24.3579 -64.4929 -69.4503
477 17.5 12 1.4 24.6042 -63.217 -9.61296
478 17.75 12 1.4 24.8506 -68.3806 -89.4942
479 18 12 1.4 25.097 -76.2563 57.8364
480 18.25 12 1.4 25.3435 -67.7014 -172.453
481 18.5 12 1.4 25.5901 -68.028 -74.7518
482 18.75 12 1.4 25.8367 -68.9867 -15.275
483 19 12 1.4 26.0834 -66.4772 115.331
484 19.25 12 1.4 26.3302 -65.0523 -163.203
485 19.5 12 1.4 26.577 -64.8991 160.182
486 19.75 12 1.4 26.8239 -64.402 164.794
487 20 12 1.4 27.0709 -63.0299 -172.407
488 20.25 12 1.4 27.3179 -78.3795 -64.7156
489 20.5 12 1.4 27.5649 -77.4319 -122.818
490 20.75 12 1.4 27.812 -73.005 -101.963
491 21 12 1.4 28.0592 -72.801 12.0234
492 21.25 12 1.4 28.3064 -70.3179 -8.67761
493 21.5 12 1.4 28.5537 -71.1867 -8.72063
494 21.75 12 1.4 28.801 -76.5446 15.9649
495 22 12 1.4 29.0483 -68.4449 -3.51319
496 22.25 12 1.4 29.2957 -76.3339 57.4097
497 22.5 12 1.4 29.5432 -68.8293 115.192
498 22.75 12 1.4 29.7906 -69.4238 159.479
499 23 12 1.4 30.0382 -77.7273 -104.64
500 23.25 12 1.4 30.2857 -77.1983 -150.624
501 23.5 12 1.4 30.5333 -74.5504 137.879
502 23.75 12 1.4 30.781 -71.1954 -123.712
503 24 12 1.4 31.0287 -72.5971 -102.174
504 24.25 12 1.4 31.2764 -67.0924 -47.172
505 -7 12.25 1.4 3.9577 -44.3204 -128.436
506 -6.75 12.25 1.4 3.94937 -42.1033 -144.834
507 -6.5 12.25 1.4 3.95684 -41.2492 -155.106
508 -6.25 12.25 1.4 3.98003 -45.5798 80.519
509 -6 12.25 1.4 4.01868 -43.2215 74.1199
510 -5.75 12.25 1.4 4.07233 -46.4127 -152.245
511 -5.5 12.25 1.4 4.1404 -60.945 48.3129
512 -5.25 12.25 1.4 4.22221 -40.8329 121.904
513 -5 12.25 1.4 4.31696 -44.4452 -152.455
514 -4.75 12.25 1.4 4.42382 -51.5162 -29.9936
515 -4.5 12.25 1.4 4.54195 -45.7614 -110.402
516 -4.25 12.25 1.4 4.67048 -47.8613 -164.4
517 -4 12.25 1.4 4.80858 -52.4541 102.35
518 -3.75 12.25 1.4 4.95546 -47.3302 125.516
519 -3.5 12.25 1.4 5.11035 -50.6229 40.2052
520 -3.25 12.25 1.4 5.27255 -47.4361 -119.639
521 -3 12.25 1.4 5.4414 -51.9393 141.779
522 -2.75 12.25 1.4 5.61631 -63.7977 -51.5494
523 -2.5 12.25 1.4 5.79672 -47.7895 147.19
524 -2.25 12.25 1.4 5.98215 -51.9599 -50.6849
525 -2 12.25 1.4 6.17213 -53.4274 105.594
526 -1.75 12.25 1.4 6.36626 -54.4669 -78.7624
527 -1.5 12.25 1.4 6.56417 -49.3078 65.7351
528 -1.25 12.25 1.4 6.76553 -67.8287 119.054
529 -1 12.25 1.4 6.97005 -48.0336 -75.2825
530 -0.75 12.25 1.4 7.17744 -45.9227 48.3588
531 -0.5 12.25 1.4 7.38747 -56.194 153.514
532 -0.25 12.25 1.4 7.59992 -55.8165 -112.812
533 -1.77636e-15 12.25 1.4 7.8146 -49.4203 -44.018
534 0.25 12.25 1.4 8.03131 -52.9615 37.3071
535 0.5 12.25 1.4 8.24991 -51.536 44.6863
536 0.75 12.25 1.4 8.47025 -51.1012 112.401
537 1 12.25 1.4 8.6922 -63.9144 -119.403
538 1.25 12.25 1.4 8.91562 -61.7189 45.1807
539 1.5 12.25 1.4 9.14043 -69.7966 172.127
540 1.75 12.25 1.4 9.36651 -56.0401 -3.78576
541 2 12.25 1.4 9.59378 -57.7314 60.6502
542 2.25 12.25 1.4 9.82215 -61.5393 -32.8017
543 2.5 12.25 1.4 10.0516 -51.9226 25.8175
544 2.75 12.25 1.4 10.2819 -56.0658 106.476
545 3 12.25 1.4 10.5132 -67.1412 -109.578
546 3.25 12.25 1.4 10.7453 -47.8788 15.3601
547 3.5 12.25 1.4 10.9782 -52.5076 34.8421
548 3.75 12.25 1.4 11.2118 -58.8844 62
549 4 12.25 1.4 11.4461 -59.5204 -43.989
550 4.25 12.25 1.4 11.6811 -52.8354 19.6385
551 4.5 12.25 1.4 11.9166 -52.6086 49.5115
552 4.75 12.25 1.4 12.1528 -53.833 123.585
553 5 12.25 1.4 12.3895 -63.5962 165.525
554 5.25 12.25 1.4 12.6267 -65.9641 -97.7026
555 5.5 12.25 1.4 12.8644 -57.8248 1.38851
556 5.75 12.25 1.4 13.1026 -70.7081 138.895
557 6 12.25 1.4 13.3411 -64.6318 82.6636
558 6.25 12.25 1.4 13.5801 -72.5558 -163.673
559 6.5 12.25 1.4 13.8195 -66.9168 -140.66
560 6.75 12.25 1.4 14.0593 -75.1156 -6.51303
561 7 12.25 1.4 14.2994 -61.1898 -125.946
562 7.25 12.25 1.4 14.5398 -58.635 -26.4063
563 7.5 12.25 1.4 14.7806 -74.5034 168.523
564 7.75 12.25 1.4 15.0216 -60.3635 -38.5067
565 8 12.25 1.4 15.263 -60.8653 33.4726
566 8.25 12.25 1.4 15.5046 -63.1422 -19.3678
567 8.5 12.25 1.4 15.7465 -59.3014 -7.27903
568 8.75 12.25 1.4 15.9886 -58.8116 25.9976
569 9 12.25 1.4 16.231 -76.1903 -152.298
570 9.25 12.25 1.4 16.4736 -54.63 -28.9651
571 9.5 12.25 1.4 16.7164 -56.7922 65.9356
572 9.75 12.25 1.4 16.9594 -56.5672 -116.167
573 10 12.25 1.4 17.2027 -56.9164 -22.1208
574 10.25 12.25 1.4 17.4461 -65.0539 -0.419764
575 10.5 12.25 1.4 17.6897 -68.4452 -69.4968
576 10.75 12.25 1.4 17.9335 -60.621 -87.9118
577 11 12.25 1.4 18.1774 -54.7159 -40.5737
578 11.25 12.25 1.4 18.4215 -54.8177 25.8623
579 11.5 12.25 1.4 18.6658 -62.6219 143.892
580 11.75 12.25 1.4 18.9102 -57.622 -57.8393
581 12 12.25 1.4 19.1547 -57.0306 11.4787
582 12.25 12.25 1.4 19.3994 -61.3722 75.6274
583 12.5 12.25 1.4 19.6443 -62.8143 59.4481
584 12.75 12.25 1.4 19.8892 -64.0037 82.0802
585 13 12.25 1.4 20.1343 -68.2564 -111.485
586 13.25 12.25 1.4 20.3795 -60.88 8.27437
587 13.5 12.25 1.4 20.6248 -59.3869 66.1047
588 13.75 12.25 1.4 20.8703 -58.2812 125.925
589 14 12.25 1.4 21.1158 -59.5394 -149.742
590 14.25 12.25 1.4 21.3614 -74.1468 -123.414
591 14.5 12.25 1.4 21.6072 -72.9768 -21.0673
592 14.75 12.25 1.4 21.853 -67.3039 31.5962
593 15 12.25 1.4 22.0989 -74.0886 27.6059
594 15.25 12.25 1.4 22.345 -59.9083 44.5338
595 15.5 12.25 1.4 22.5911 -57.5974 94.934
596 15.75 12.25 1.4 22.8373 -63.7067 -177.307
597 16 12.25 1.4 23.0835 -65.419 1.43765
598 16.25 12.25 1.4 23.3299 -62.3655 2.86315
599 16.5 12.25 1.4 23.5763 -59.2333 33.2529
600 16.75 12.25 1.4 23.8228 -68.7451 54.4167
601 17 12.25 1.4 24.0694 -69.8073 -43.8775
602 17.25 12.25 1.4 24.316 -66.1829 -16.1777
603 17.5 12.25 1.4 24.5628 -62.4617 -23.906
604 17.75 12.25 1.4 24.8095 -61.4902 -45.2547
605 18 12.25 1.4 25.0564 -62.02 -38.0415
606 18.25 12.25 1.4 25.3033 -62.7644 -40.8976
607 18.5 12.25 1.4 25.5503 -59.4773 -50.5927
608 18.75 12.25 1.4 25.7973 -61.9863 4.78579
609 19 12.25 1.4 26.0444 -70.5392 60.0725
610 19.25 12.25 1.4 26.2915 -76.6708 46.128
611 19.5 12.25 1.4 26.5387 -76.6821 60.4588
612 19.75 12.25 1.4 26.7859 -73.6693 22.0172
613 20 12.25 1.4 27.0332 -62.9537 -41.9112
614 20.25 12.25 1.4 27.2806 -80.634 -85.151
615 20.5 12.25 1.4 27.528 -70.5066 -118.744
616 20.75 12.25 1.4 27.7754 -68.2358 -174.46
617 21 12.25 1.4 28.0229 -73.8041 -146.693
618 21.25 12.25 1.4 28.2704 -67.7466 -126.93
619 21.5 12.25 1.4 28.518 -66.5605 -152.735
620 21.75 12.25 1.4 28.7656 -63.6044 -90.9338
621 22 12.25 1.4 29.0132 -68.2183 -41.1059
622 22.25 12.25 1.4 29.2609 -77.6234 68.9342
623 22.5 12.25 1.4 29.5087 -71.2493 117.331
624 22.75 12.25 1.4 29.7564 -75.3695 -143.914
625 23 12.25 1.4 30.0042 -65.8161 -3.12843
626 23.25 12.25 1.4 30.2521 -69.0531 89.2668
627 23.5 12.25 1.4 30.5 -77.8713 -144.063
628 23.75 12.25 1.4 30.7479 -64.0624 -176.372
629 24 12.25 1.4 30.9958 -66.1169 -107.035
630 24.25 12.25 1.4 31.2438 -80.5075 147.442
631 -7 12.5 1.4 3.70826 -40.5562 -121.99
632 -6.75 12.5 1.4 3.69937 -42.4963 -130.539
633 -6.5 12.5 1.4 3.70734 -40.0326 -151.945
634 -6.25 12.5 1.4 3.73209 -53.9644 86.6138
635 -6 12.5 1.4 3.77327 -40.9827 57.1355
636 -5.75 12.5 1.4 3.83036 -58.6479 131.827
637 -5.5 12.5 1.4 3.90266 -49.3672 38.353
638 -5.25 12.5 1.4 3.98934 -41.8466 86.6203
639 -5 12.5 1.4 4.08949 -50.5438 -112.1
640 -4.75 12.5 1.4 4.20215 -45.4427 -179.218
641 -4.5 12.5 1.4 4.32633 -41.8577 174.418
642 -4.25 12.5 1.4 4.46108 -58.5566 61.2643
643 -4 12.5 1.4 4.60546 -53.2846 108.777
644 -3.75 12.5 1.4 4.75861 -52.3719 -15.7271
645 -3.5 12.5 1.4 4.9197 -46.0265 -144.541
646 -3.25 12.5 1.4 5.08798 -52.0926 68.7563
647 -3 12.5 1.4 5.26276 -47.4727 -77.1072
648 -2.75 12.5 1.4 5.44341 -49.7325 100.854
649 -2.5 12.5 1.4 5.62937 -53.7926 -121.551
650 -2.25 12.5 1.4 5.82013 -50.339 92.4281
651 -2 12.5 1.4 6.01523 -54.5636 -121.726
652 -1.75 12.5 1.4 6.21427 -53.3528 48.5567
653 -1.5 12.5 1.4 6.41687 -50.5099 110.32
654 -1.25 12.5 1.4 6.62271 -48.2615 -132.783
655 -1 12.5 1.4 6.8315 -47.8261 7.22518
656 -0.75 12.5 1.4 7.04297 -58.5984 82.4199
657 -0.5 12.5 1.4 7.2569 -45.9138 142.757
658 -0.25 12.5 1.4 7.47306 -52.1498 -108.814
659 -1.77636e-15 12.5 1.4 7.69128 -56.7869 -131.62
660 0.25 12.5 1.4 7.91137 -57.7615 -17.3364
661 0.5 12.5 1.4 8.1332 -62.9741 165.216
662 0.75 12.5 1.4 8.35661 -62.4054 15.1764
663 1 12.5 1.4 8.5815 -56.2263 167.241
664 1.25 12.5 1.4 8.80773 -59.1528 -119.172
665 1.5 12.5 1.4 9.03522 -60.1219 164.553
666 1.75 12.5 1.4 9.26387 -52.0863 -149.777
667 2 12.5 1.4 9.4936 -62.5896 -165.895
668 2.25 12.5 1.4 9.72433 -53.8539 174.839
669 2.5 12.5 1.4 9.95598 -54.6423 -122.363
670 2.75 12.5 1.4 10.1885 -57.1451 140.352
671 3 12.5 1.4 10.4218 -53.4072 -158.918
672 3.25 12.5 1.4 10.6559 -51.5665 -93.6466
673 3.5 12.5 1.4 10.8907 -54.3702 39.6391
674 3.75 12.5 1.4 11.1262 -60.0508 -174.305
675 4 12.5 1.4 11.3623 -55.6997 -142.113
676 4.25 12.5 1.4 11.5989 -56.6857 -58.5669
677 4.5 12.5 1.4 11.8361 -56.5661 105.159
678 4.75 12.5 1.4 12.0739 -56.4897 148.569
679 5 12.5 1.4 12.3121 -53.9063 -150.697
680 5.25 12.5 1.4 12.5508 -56.2022 -81.8316
681 5.5 12.5 1.4 12.7899 -96.2728 -79.3759
682 5.75 12.5 1.4 13.0294 -77.4014 -69.701
683 6 12.5 1.4 13.2693 -64.3994 139.867
684 6.25 12.5 1.4 13.5096 -55.344 -176.83
685 6.5 12.5 1.4 13.7502 -61.3374 -35.4643
686 6.75 12.5 1.4 13.9911 -59.0541 175.405
687 7 12.5 1.4 14.2324 -62.6427 -53.3241
688 7.25 12.5 1.4 14.4739 -57.5826 121.164
689 7.5 12.5 1.4 14.7158 -68.588 176.977
690 7.75 12.5 1.4 14.9579 -60.1376 88.2044
691 8 12.5 1.4 15.2002 -60.081 106.369
692 8.25 12.5 1.4 15.4428 -64.189 -131.749
693 8.5 12.5 1.4 15.6857 -59.8384 85.6921
694 8.75 12.5 1.4 15.9287 -54.7557 158.577
695 9 12.5 1.4 16.172 -71.4509 -130.723
696 9.25 12.5 1.4 16.4155 -58.1739 109.08
697 9.5 12.5 1.4 16.6591 -58.0879 151.893
698 9.75 12.5 1.4 16.903 -63.0801 -150.185
699 10 12.5 1.4 17.147 -71.6766 -84.5701
700 10.25 12.5 1.4 17.3912 -56.1186 92.8483
701 10.5 12.5 1.4 17.6355 -59.368 167.895
702 10.75 12.5 1.4 17.8801 -66.4996 -24.698
703 11 12.5 1.4 18.1247 -55.5433 12.3748
704 11.25 12.5 1.4 18.3695 -55.7281 68.7951
705 11.5 12.5 1.4 18.6145 -56.3178 146.15
706 11.75 12.5 1.4 18.8596 -60.5502 -110.621
707 12 12.5 1.4 19.1048 -63.5379 -22.7182
708 12.25 12.5 1.4 19.3501 -62.3586 115.917
709 12.5 12.5 1.4 19.5955 -60.1721 -127.442
710 12.75 12.5 1.4 19.8411 -63.9808 -107.064
711 13 12.5 1.4 20.0868 -61.7278 -114.855
712 13.25 12.5 1.4 20.3325 -58.1909 -66.5345
713 13.5 12.5 1.4 20.5784 -56.5377 -1.48375
714 13.75 12.5 1.4 20.8244 -62.9052 104.519
715 14 12.5 1.4 21.0705 -68.8761 -117.094
716 14.25 12.5 1.4 21.3166 -67.0106 -94.31
717 14.5 12.5 1.4 21.5629 -63.6272 -71.9869
718 14.75 12.5 1.4 21.8092 -63.8133 -132.189
719 15 12.5 1.4 22.0556 -62.0029 -78.6985
720 15.25 12.5 1.4 22.3021 -65.4516 -55.2409
721 15.5 12.5 1.4 22.5487 -66.2536 150.789
722 15.75 12.5 1.4 22.7954 -58.8413 178.56
723 16 12.5 1.4 23.0421 -58.1511 -125.275
724 16.25 12.5 1.4 23.2889 -61.2823 -84.2828
725 16.5 12.5 1.4 23.5357 -70.6415 97.2034
726 16.75 12.5 1.4 23.7827 -60.7017 167.942
727 17 12.5 1.4 24.0296 -62.1767 -125.186
728 17.25 12.5 1.4 24.2767 -71.2395 -157.553
729 17.5 12.5 1.4 24.5238 -67.6259 157.443
730 17.75 12.5 1.4 24.771 -77.1325 61.8657
731 18 12.5 1.4 25.0182 -59.5285 168.649
732 18.25 12.5 1.4 25.2655 -62.1538 -148.777
733 18.5 12.5 1.4 25.5128 -70.5295 -111.404
734 18.75 12.5 1.4 25.7602 -68.9375 166.149
735 19 12.5 1.4 26.0076 -75.6768 93.5274
736 19.25 12.5 1.4 26.2551 -85.6816 -87.5383
737 19.5 12.5 1.4 26.5026 -69.0629 164.437
738 19.75 12.5 1.4 26.7502 -64.6854 -64.0502
739 20 12.5 1.4 26.9978 -59.179 10.9424
740 20.25 12.5 1.4 27.2455 -69.3852 51.3399
741 20.5 12.5 1.4 27.4932 -64.8928 65.9487
742 20.75 12.5 1.4 27.7409 -70.5855 72.7923
743 21 12.5 1.4 27.9887 -67.123 86.7448
744 21.25 12.5 1.4 28.2366 -64.9788 94.5456
745 21.5 12.5 1.4 28.4844 -67.788 119.928
746 21.75 12.5 1.4 28.7323 -75.6296 -143.575
747 22 12.5 1.4 28.9803 -70.5007 6.15701
748 22.25 12.5 1.4 29.2282 -64.9473 106.03
749 22.5 12.5 1.4 29.4762 -67.8277 -94.1772
750 22.75 12.5 1.4 29.7243 -69.1671 -39.9356
751 23 12.5 1.4 29.9724 -68.8864 55.955
752 23.25 12.5 1.4 30.2205 -75.2353 4.39671
753 23.5 12.5 1.4 30.4686 -65.0045 140.209
754 23.75 12.5 1.4 30.7168 -68.8618 -144.542
755 24 12.5 1.4 30.965 -75.7474 100.246
756 24.25 12.5 1.4 31.2132 -71.059 111.848
757 -7 12.75 1.4 3.45891 -38.0418 -147.782
758 -6.75 12.75 1.4 3.44937 -45.1393 -167.733
759 -6.5 12.75 1.4 3.45792 -38.2574 -155.051
760 -6.25 12.75 1.4 3.48444 -45.5535 128.517
761 -6 12.75 1.4 3.52851 -40.3873 25.3431
762 -5.75 12.75 1.4 3.5895 -50.126 -52.4391
763 -5.5 12.75 1.4 3.66655 -45.9748 -14.6541
764 -5.25 12.75 1.4 3.75868 -47.3274 27.8044
765 -5 12.75 1.4 3.86481 -65.7699 140.634
766 -4.75 12.75 1.4 3.98382 -40.6936 85.9952
767 -4.5 12.75 1.4 4.1146 -57.86 48.6345
768 -4.25 12.75 1.4 4.25606 -53.5695 51.2841
769 -4 12.75 1.4 4.40717 -50.2344 -57.142
770 -3.75 12.75 1.4 4.56697 -47.9046 -161.638
771 -3.5 12.75 1.4 4.73458 -51.0642 -11.6895
772 -3.25 12.75 1.4 4.90921 -46.0811 -100.26
773 -3 12.75 1.4 5.09013 -51.0378 40.4257
774 -2.75 12.75 1.4 5.2767 -51.4022 -108.871
775 -2.5 12.75 1.4 5.46833 -51.4228 -9.54317
776 -2.25 12.75 1.4 5.66452 -53.8532 -93.4616
777 -2 12.75 1.4 5.8648 -46.8926 -43.4116
778 -1.75 12.75 1.4 6.06877 -49.7868 68.9816
779 -1.5 12.75 1.4 6.27607 -50.8003 -153.602
780 -1.25 12.75 1.4 6.48638 -47.5223 -68.013
781 -1 12.75 1.4 6.69942 -52.0623 6.3469
782 -0.75 12.75 1.4 6.91493 -47.1292 69.5657
783 -0.5 12.75 1.4 7.1327 -57.6958 62.6503
784 -0.25 12.75 1.4 7.35251 -56.5096 168.395
785 -1.77636e-15 12.75 1.4 7.5742 -53.3236 -1.73757
786 0.25 12.75 1.4 7.7976 -67.5949 -55.3847
787 0.5 12.75 1.4 8.02258 -53.3023 -12.0969
788 0.75 12.75 1.4 8.24899 -58.3632 -54.9249
789 1 12.75 1.4 8.47673 -52.3639 -0.21766
790 1.25 12.75 1.4 8.70569 -64.8202 -67.8491
791 1.5 12.75 1.4 8.93578 -52.9707 -10.6565
792 1.75 12.75 1.4 9.16691 -57.4015 66.662
793 2 12.75 1.4 9.399 -56.4787 -29.8059
794 2.25 12.75 1.4 9.632 -55.0872 48.1851
795 2.5 12.75 1.4 9.86582 -60.1162 131.274
796 2.75 12.75 1.4 10.1004 -52.6281 8.17468
797 3 12.75 1.4 10.3357 -54.6326 146.706
798 3.25 12.75 1.4 10.5717 -59.5349 -118.082
799 3.5 12.75 1.4 10.8084 -65.4431 -17.3236
800 3.75 12.75 1.4 11.0456 -52.6144 101.817
801 4 12.75 1.4 11.2833 -54.525 -139.205
802 4.25 12.75 1.4 11.5216 -56.4111 -52.8147
803 4.5 12.75 1.4 11.7604 -55.395 2.13905
804 4.75 12.75 1.4 11.9996 -60.288 119.232
805 5 12.75 1.4 12.2393 -57.1563 -110.014
806 5.25 12.75 1.4 12.4794 -56.9822 -37.9582
807 5.5 12.75 1.4 12.7198 -55.1586 -18.1194
808 5.75 12.75 1.4 12.9606 -54.7625 45.4746
809 6 12.75 1.4 13.2018 -64.4505 122.472
810 6.25 12.75 1.4 13.4432 -62.7611 -69.1759
811 6.5 12.75 1.4 13.685 -63.3133 -179.766
812 6.75 12.75 1.4 13.9271 -57.031 -33.3719
813 7 12.75 1.4 14.1694 -61.762 92.7754
814 7.25 12.75 1.4 14.412 -65.1495 -148.128
815 7.5 12.75 1.4 14.6549 -70.0847 -29.9728
816 7.75 12.75 1.4 14.898 -65.3345 -117.905
817 8 12.75 1.4 15.1413 -58.2335 -123.683
818 8.25 12.75 1.4 15.3848 -63.126 -58.3347
819 8.5 12.75 1.4 15.6286 -64.4443 -157.249
820 8.75 12.75 1.4 15.8725 -57.1401 -109.268
821 9 12.75 1.4 16.1166 -55.4761 -57.8267
822 9.25 12.75 1.4 16.3609 -68.0006 48.5773
823 9.5 12.75 1.4 16.6054 -58.0824 -124.676
824 9.75 12.75 1.4 16.85 -57.8203 -57.7636
825 10 12.75 1.4 17.0948 -62.057 30.1947
826 10.25 12.75 1.4 17.3397 -64.1826 30.6782
827 10.5 12.75 1.4 17.5848 -54.9745 179.84
828 10.75 12.75 1.4 17.83 -54.8245 -89.7422
829 11 12.75 1.4 18.0754 -55.2158 42.3608
830 11.25 12.75 1.4 18.3208 -60.3159 143.689
831 11.5 12.75 1.4 18.5664 -60.8564 -174.108
832 11.75 12.75 1.4 18.8121 -61.1994 -144.273
833 12 12.75 1.4 19.0579 -63.5617 -25.4879
834 12.25 12.75 1.4 19.3039 -58.6214 46.7629
835 12.5 12.75 1.4 19.5499 -60.5627 133.926
836 12.75 12.75 1.4 19.796 -65.9272 -132.375
837 13 12.75 1.4 20.0422 -70.3713 28.0917
838 13.25 12.75 1.4 20.2886 -63.4214 -33.7664
839 13.5 12.75 1.4 20.535 -57.4385 31.453
840 13.75 12.75 1.4 20.7814 -54.8892 54.4901
841 14 12.75 1.4 21.028 -57.5288 115.147
842 14.25 12.75 1.4 21.2747 -64.8473 114.816
843 14.5 12.75 1.4 21.5214 -63.6886 76.6456
844 14.75 12.75 1.4 21.7682 -64.7714 140.784
845 15 12.75 1.4 22.0151 -72.4719 -80.4759
846 15.25 12.75 1.4 22.262 -65.1229 65.4458
847 15.5 12.75 1.4 22.509 -62.8592 53.3306
848 15.75 12.75 1.4 22.7561 -60.981 112.325
849 16 12.75 1.4 23.0033 -61.5065 -157.823
850 16.25 12.75 1.4 23.2505 -61.3032 -2.96109
851 16.5 12.75 1.4 23.4977 -64.6812 61.7992
852 16.75 12.75 1.4 23.7451 -67.3087 101.207
853 17 12.75 1.4 23.9924 -71.062 -40.5389
854 17.25 12.75 1.4 24.2399 -60.9175 -10.4993
855 17.5 12.75 1.4 24.4873 -60.1929 43.6148
856 17.75 12.75 1.4 24.7349 -61.6855 67.5356
857 18 12.75 1.4 24.9825 -66.0361 93.1265
858 18.25 12.75 1.4 25.2301 -66.0231 78.2569
859 18.5 12.75 1.4 25.4778 -62.7275 53.2808
860 18.75 12.75 1.4 25.7255 -65.0228 81.5196
861 19 12.75 1.4 25.9732 -66.0344 62.5771
862 19.25 12.75 1.4 26.221 -66.3293 107.548
863 19.5 12.75 1.4 26.4689 -65.4114 -148.172
864 19.75 12.75 1.4 26.7168 -63.3944 -64.3894
865 20 12.75 1.4 26.9647 -63.1954 -0.115481
866 20.25 12.75 1.4 27.2127 -66.0627 39.6514
867 20.5 12.75 1.4 27.4607 -67.3094 -114.096
868 20.75 12.75 1.4 27.7087 -61.4157 -69.3205
869 21 12.75 1.4 27.9568 -67.1118 -67.0514
870 21.25 12.75 1.4 28.2049 -63.8385 -103.553
871 21.5 12.75 1.4 28.453 -64.7925 -84.6975
872 21.75 12.75 1.4 28.7012 -63.9913 -85.8465
873 22 12.75 1.4 28.9494 -68.7302 -10.6718
874 22.25 12.75 1.4 29.1976 -68.392 -121.764
875 22.5 12.75 1.4 29.4459 -59.3412 -121.161
876 22.75 12.75 1.4 29.6942 -64.2048 -78.6071
877 23 12.75 1.4 29.9425 -65.0034 -55.8255
878 23.25 12.75 1.4 30.1909 -63.8 -51.3334
879 23.5 12.75 1.4 30.4392 -62.2853 -138.611
880 23.75 12.75 1.4 30.6877 -62.6614 -91.3165
881 24 12.75 1.4 30.9361 -62.5744 -60.9402
882 24.25 12.75 1.4 31.1845 -62.0568 -90.5137
883 -7 13 1.4 3.20965 -39.4571 -132.464
884 -6.75 13 1.4 3.19937 -55.1724 -137.66
885 -6.5 13 1.4 3.20859 -39.4745 -159.878
886 -6.25 13 1.4 3.23715 -43.3914 -172.649
887 -6 13 1.4 3.28454 -42.0367 7.2895
888 -5.75 13 1.4 3.34997 -46.8829 -95.2309
889 -5.5 13 1.4 3.4324 -43.7158 -108.946
890 -5.25 13 1.4 3.53065 -47.0997 21.892
891 -5 13 1.4 3.64343 -41.0406 21.0953
892 -4.75 13 1.4 3.76944 -46.406 28.8318
893 -4.5 13 1.4 3.9074 -55.2664 -47.1358
894 -4.25 13 1.4 4.05609 -47.7692 -68.1763
895 -4 13 1.4 4.21437 -45.4733 143.987
896 -3.75 13 1.4 4.38121 -49.6167 13.8797
897 -3.5 13 1.4 4.55567 -50.9851 -128.414
898 -3.25 13 1.4 4.7369 -45.6378 21.5096
899 -3 13 1.4 4.92415 -50.4199 -148.619
900 -2.75 13 1.4 5.11677 -51.6655 32.1301
901 -2.5 13 1.4 5.31418 -48.1301 154.417
902 -2.25 13 1.4 5.51585 -53.5286 -108.831
903 -2 13 1.4 5.72133 -49.5482 -7.13732
904 -1.75 13 1.4 5.93024 -46.7124 137.409
905 -1.5 13 1.4 6.14222 -46.5762 -142.996
906 -1.25 13 1.4 6.35696 -51.2898 -114.333
907 -1 13 1.4 6.57419 -60.8693 -28.9231
908 -0.75 13 1.4 6.79368 -62.6963 147.025
909 -0.5 13 1.4 7.01521 -49.5859 138.587
910 -0.25 13 1.4 7.2386 -83.7754 -137.478
911 -1.77636e-15 13 1.4 7.46367 -51.7656 -179.081
912 0.25 13 1.4 7.69028 -57.9923 -175.786
913 0.5 13 1.4 7.9183 -55.3866 -165.181
914 0.75 13 1.4 8.14761 -61.3765 141.31
915 1 13 1.4 8.37811 -54.6 -147.961
916 1.25 13 1.4 8.60969 -62.7711 131.575
917 1.5 13 1.4 8.84228 -55.221 -147.704
918 1.75 13 1.4 9.07579 -60.2793 -20.855
919 2 13 1.4 9.31016 -56.1612 -161.109
920 2.25 13 1.4 9.54532 -58.1288 -39.8991
921 2.5 13 1.4 9.78122 -67.2122 75.5405
922 2.75 13 1.4 10.0178 -53.5839 -155.714
923 3 13 1.4 10.255 -56.9792 26.8984
924 3.25 13 1.4 10.4928 -53.2587 176.662
925 3.5 13 1.4 10.7312 -56.0421 -67.0035
926 3.75 13 1.4 10.9701 -62.1837 115.502
927 4 13 1.4 11.2095 -53.4443 156.359
928 4.25 13 1.4 11.4493 -55.0612 -85.0623
929 4.5 13 1.4 11.6895 -56.023 14.9116
930 4.75 13 1.4 11.9302 -57.0599 108.874
931 5 13 1.4 12.1712 -58.1656 156.804
932 5.25 13 1.4 12.4126 -62.9097 -109.141
933 5.5 13 1.4 12.6543 -57.9101 34.6578
934 5.75 13 1.4 12.8963 -56.0815 111.302
935 6 13 1.4 13.1387 -58.5681 162.35
936 6.25 13 1.4 13.3813 -58.0521 143.598
937 6.5 13 1.4 13.6242 -63.9023 -99.2386
938 6.75 13 1.4 13.8673 -65.9823 11.6277
939 7 13 1.4 14.1107 -62.0073 102.788
940 7.25 13 1.4 14.3543 -72.3343 -103.302
941 7.5 13 1.4 14.5981 -70.2203 130.59
942 7.75 13 1.4 14.8421 -66.7557 -112.616
943 8 13 1.4 15.0863 -57.841 -10.5074
944 8.25 13 1.4 15.3307 -60.1256 30.0251
945 8.5 13 1.4 15.5753 -64.5208 110.48
946 8.75 13 1.4 15.8201 -58.7944 -41.5296
947 9 13 1.4 16.065 -54.6137 47.5163
948 9.25 13 1.4 16.31 -65.0406 111.961
949 9.5 13 1.4 16.5553 -65.828 140.188
950 9.75 13 1.4 16.8006 -66.2699 -58.3536
951 10 13 1.4 17.0461 -58.9609 54.213
952 10.25 13 1.4 17.2917 -54.1987 137.852
953 10.5 13 1.4 17.5375 -58.6782 -122.877
954 10.75 13 1.4 17.7833 -57.1205 -88.7033
955 11 13 1.4 18.0293 -63.451 -30.2204
956 11.25 13 1.4 18.2754 -58.1028 132.934
957 11.5 13 1.4 18.5216 -59.1102 -130.954
958 11.75 13 1.4 18.7679 -65.776 -42.4002
959 12 13 1.4 19.0143 -66.4359 -58.6766
960 12.25 13 1.4 19.2608 -59.705 28.8314
961 12.5 13 1.4 19.5073 -58.6656 91.5799
962 12.75 13 1.4 19.754 -59.3 166.318
963 13 13 1.4 20.0007 -64.495 -152.384
964 13.25 13 1.4 20.2475 -60.639 172.183
965 13.5 13 1.4 20.4944 -61.3474 -108.705
966 13.75 13 1.4 20.7414 -68.0518 -1.83452
967 14 13 1.4 20.9885 -66.2093 141.892
968 14.25 13 1.4 21.2356 -62.3045 -143.725
969 14.5 13 1.4 21.4827 -62.1261 -103.337
970 14.75 13 1.4 21.73 -67.1328 -102.557
971 15 13 1.4 21.9773 -66.3279 -159.943
972 15.25 13 1.4 22.2247 -58.5074 -78.9894
973 15.5 13 1.4 22.4721 -71.8085 -44.5076
974 15.75 13 1.4 22.7196 -73.5012 176.006
975 16 13 1.4 22.9671 -75.9566 -129.57
976 16.25 13 1.4 23.2147 -70.4095 -69.0188
977 16.5 13 1.4 23.4623 -74.4923 95.0549
978 16.75 13 1.4 23.71 -68.9507 150.254
979 17 13 1.4 23.9578 -62.0059 -145.632
980 17.25 13 1.4 24.2055 -65.8494 -91.1139
981 17.5 13 1.4 24.4534 -61.788 -18.9679
982 17.75 13 1.4 24.7012 -64.2985 146.835
983 18 13 1.4 24.9492 -64.6201 -103.987
984 18.25 13 1.4 25.1971 -63.9075 -50.2145
985 18.5 13 1.4 25.4451 -70.854 177.31
986 18.75 13 1.4 25.6932 -63.7979 -63.4726
987 19 13 1.4 25.9412 -64.659 13.1447
988 19.25 13 1.4 26.1893 -66.6261 -162.44
989 19.5 13 1.4 26.4375 -64.801 -170.316
990 19.75 13 1.4 26.6857 -61.5175 -63.1139
991 20 13 1.4 26.9339 -68.465 80.4643
992 20.25 13 1.4 27.1821 -63.8137 161.26
993 20.5 13 1.4 27.4304 -60.2471 -161.502
994 20.75 13 1.4 27.6787 -64.4356 -126.034
995 21 13 1.4 27.927 -67.5954 -107.132
996 21.25 13 1.4 28.1754 -67.05 135.111
997 21.5 13 1.4 28.4238 -74.2021 -74.1259
998 21.75 13 1.4 28.6722 -62.2923 15.7826
999 22 13 1.4 28.9207 -61.7287 106.626
1000 22.25 13 1.4 29.1692 -64.154 100.007
1001 22.5 13 1.4 29.4177 -72.283 105.136
1002 22.75 13 1.4 29.6662 -71.0556 49.5829
1003 23 13 1.4 29.9148 -61.6189 52.5389
1004 23.25 13 1.4 30.1633 -61.98 123.325
1005 23.5 13 1.4 30.4119 -67.4847 128.645
1006 23.75 13 1.4 30.6606 -65.5085 117.927
1007 24 13 1.4 30.9092 -94.7631 -176.387
1008 24.25 13 1.4 31.1579 -65.5146 65.165
1009 -7 13.25 1.4 2.96052 -38.3175 -122.629
1010 -6.75 13.25 1.4 2.94937 -53.3771 -59.666
1011 -6.5 13.25 1.4 2.95937 -39.6966 -163.248
1012 -6.25 13.25 1.4 2.99031 -39.9006 171.257
1013 -6 13.25 1.4 3.04155 -49.4084 36.9997
1014 -5.75 13.25 1.4 3.11209 -41.3399 -157.337
1015 -5.5 13.25 1.4 3.20066 -42.8168 -152.332
1016 -5.25 13.25 1.4 3.3058 -42.3623 -29.2568
1017 -5 13.25 1.4 3.42599 -40.3909 -76.6057
1018 -4.75 13.25 1.4 3.5597 -72.3985 -48.4223
1019 -4.5 13.25 1.4 3.70548 -43.5245 -112.335
1020 -4.25 13.25 1.4 3.86195 -50.2824 46.0636
1021 -4 13.25 1.4 4.02787 -48.496 -34.0147
1022 -3.75 13.25 1.4 4.20212 -51.0672 -174.69
1023 -3.5 13.25 1.4 4.38371 -43.8746 -0.996758
1024 -3.25 13.25 1.4 4.57176 -56.9337 67.6832
1025 -3 13.25 1.4 4.76551 -45.8343 -25.4522
1026 -2.75 13.25 1.4 4.96429 -51.6222 94.5533
1027 -2.5 13.25 1.4 5.16752 -49.3943 -152.815
1028 -2.25 13.25 1.4 5.3747 -47.6268 -16.5173
1029 -2 13.25 1.4 5.58538 -49.0883 61.8837
1030 -1.75 13.25 1.4 5.79919 -51.2905 121.124
1031 -1.5 13.25 1.4 6.01578 -54.2906 -115.46
1032 -1.25 13.25 1.4 6.23488 -52.2509 -66.1019
1033 -1 13.25 1.4 6.45622 -54.0003 -54.7211
1034 -0.75 13.25 1.4 6.67959 -53.4948 -8.84011
1035 -0.5 13.25 1.4 6.90478 -53.1337 -64.3383
1036 -0.25 13.25 1.4 7.13163 -63.5177 -129.066
1037 -1.77636e-15 13.25 1.4 7.35997 -52.03 1.53889
1038 0.25 13.25 1.4 7.58968 -62.8055 -9.03183
1039 0.5 13.25 1.4 7.82064 -54.8997 19.318
1040 0.75 13.25 1.4 8.05273 -61.1998 -20.4526
1041 1 13.25 1.4 8.28586 -52.9425 57.9922
1042 1.25 13.25 1.4 8.51995 -69.116 37.4446
1043 1.5 13.25 1.4 8.75493 -58.4496 80.5115
1044 1.75 13.25 1.4 8.99071 -60.1792 -123.768
1045 2 13.25 1.4 9.22724 -58.5633 52.4801
1046 2.25 13.25 1.4 9.46446 -57.9544 -120.271
1047 2.5 13.25 1.4 9.70232 -68.8776 36.7156
1048 2.75 13.25 1.4 9.94078 -66.553 124.516
1049 3 13.25 1.4 10.1798 -59.4368 -102.203
1050 3.25 13.25 1.4 10.4193 -59.5828 47.7714
1051 3.5 13.25 1.4 10.6593 -59.1883 -150.694
1052 3.75 13.25 1.4 10.8998 -52.249 -11.2514
1053 4 13.25 1.4 11.1407 -69.4591 -175.703
1054 4.25 13.25 1.4 11.3819 -56.2366 -128.836
1055 4.5 13.25 1.4 11.6236 -55.2646 -32.7806
1056 4.75 13.25 1.4 11.8656 -56.4962 47.5218
1057 5 13.25 1.4 12.1079 -53.803 179.355
1058 5.25 13.25 1.4 12.3505 -55.3427 -93.7038
1059 5.5 13.25 1.4 12.5934 -69.2529 -90.4328
1060 5.75 13.25 1.4 12.8366 -66.6647 -160.159
1061 6 13.25 1.4 13.08 -64.4172 134.95
1062 6.25 13.25 1.4 13.3237 -54.0367 -138.647
1063 6.5 13.25 1.4 13.5676 -58.4572 -58.4668
1064 6.75 13.25 1.4 13.8118 -65.5236 19.2433
1065 7 13.25 1.4 14.0561 -65.438 -73.7108
1066 7.25 13.25 1.4 14.3006 -60.8553 107.673
1067 7.5 13.25 1.4 14.5453 -58.6049 -176.609
1068 7.75 13.25 1.4 14.7902 -62.299 -146.459
1069 8 13.25 1.4 15.0353 -72.7422 -34.8107
1070 8.25 13.25 1.4 15.2805 -60.28 106.349
1071 8.5 13.25 1.4 15.5259 -61.5942 -133.161
1072 8.75 13.25 1.4 15.7714 -63.9296 36.4741
1073 9 13.25 1.4 16.0171 -62.3268 96.258
1074 9.25 13.25 1.4 16.2629 -57.5955 161.775
1075 9.5 13.25 1.4 16.5088 -58.2169 -111.478
1076 9.75 13.25 1.4 16.7548 -58.0067 -61.946
1077 10 13.25 1.4 17.001 -59.9895 23.7407
1078 10.25 13.25 1.4 17.2472 -58.4418 156.521
1079 10.5 13.25 1.4 17.4936 -55.7629 -112.215
1080 10.75 13.25 1.4 17.7401 -57.5011 -19.5161
1081 11 13.25 1.4 17.9866 -60.3964 11.6302
1082 11.25 13.25 1.4 18.2333 -70.2946 54.6761
1083 11.5 13.25 1.4 18.4801 -59.2497 157.661
1084 11.75 13.25 1.4 18.7269 -61.1914 -99.4528
1085 12 13.25 1.4 18.9738 -60.3933 -4.55425
1086 12.25 13.25 1.4 19.2208 -61.8578 -1.32269
1087 12.5 13.25 1.4 19.4679 -57.9322 53.0013
1088 12.75 13.25 1.4 19.715 -60.5703 131.181
1089 13 13.25 1.4 19.9623 -66.3164 -144.298
1090 13.25 13.25 1.4 20.2095 -64.1887 -114.388
1091 13.5 13.25 1.4 20.4569 -73.3641 -33.145
1092 13.75 13.25 1.4 20.7043 -61.1252 -27.9043
1093 14 13.25 1.4 20.9518 -59.3556 27.2133
1094 14.25 13.25 1.4 21.1993 -66.436 112.37
1095 14.5 13.25 1.4 21.4469 -67.2346 -73.4133
1096 14.75 13.25 1.4 21.6946 -60.9116 73.6255
1097 15 13.25 1.4 21.9423 -64.3531 127.791
1098 15.25 13.25 1.4 22.1901 -67.8627 138.696
1099 15.5 13.25 1.4 22.4379 -65.1694 47.8748
1100 15.75 13.25 1.4 22.6857 -68.5717 63.8204
1101 16 13.25 1.4 22.9336 -63.622 108.083
1102 16.25 13.25 1.4 23.1816 -72.4282 155.069
1103 16.5 13.25 1.4 23.4296 -64.066 22.332
1104 16.75 13.25 1.4 23.6776 -59.0416 103.91
1105 17 13.25 1.4 23.9257 -60.765 153.766
1106 17.25 13.25 1.4 24.1738 -72.1072 -122.773
1107 17.5 13.25 1.4 24.4219 -64.3584 72.4745
1108 17.75 13.25 1.4 24.6701 -62.4424 154.708
1109 18 13.25 1.4 24.9183 -64.3452 157.91
1110 18.25 13.25 1.4 25.1666 -70.6872 168.884
1111 18.5 13.25 1.4 25.4149 -69.2604 -175.903
1112 18.75 13.25 1.4 25.6632 -64.3398 36.3137
1113 19 13.25 1.4 25.9116 -64.5035 93.4555
1114 19.25 13.25 1.4 26.16 -69.2598 -165.504
1115 19.5 13.25 1.4 26.4084 -75.6539 -37.8528
1116 19.75 13.25 1.4 26.6568 -72.8034 50.1901
1117 20 13.25 1.4 26.9053 -60.9589 53.3829
1118 20.25 13.25 1.4 27.1538 -60.2066 107.015
1119 20.5 13.25 1.4 27.4024 -73.2989 -143.455
1120 20.75 13.25 1.4 27.6509 -79.6916 -42.0345
1121 21 13.25 1.4 27.8995 -65.8992 47.9768
1122 21.25 13.25 1.4 28.1481 -65.319 56.2768
1123 21.5 13.25 1.4 28.3968 -74.5242 28.5028
1124 21.75 13.25 1.4 28.6454 -73.7138 9.79149
1125 22 13.25 1.4 28.8941 -74.8439 -160.001
1126 22.25 13.25 1.4 29.1428 -66.3209 -10.4141
1127 22.5 13.25 1.4 29.3915 -65.7726 -71.8361
1128 22.75 13.25 1.4 29.6403 -59.3052 -24.1874
1129 23 13.25 1.4 29.8891 -62.8944 -20.2984
1130 23.25 13.25 1.4 30.1378 -64.216 -20.2436
1131 23.5 13.25 1.4 30.3867 -82.9897 156.105
1132 23.75 13.25 1.4 30.6355 -65.6019 -89.9182
1133 24 13.25 1.4 30.8843 -63.3207 -49.7661
1134 24.25 13.25 1.4 31.1332 -67.2123 -36.2418
1135 -7 13.5 1.4 2.71155 -39.8647 -105.443
1136 -6.75 13.5 1.4 2.69937 -42.923 -14.9236
1137 -6.5 13.5 1.4 2.71029 -49.9515 143.21
1138 -6.25 13.5 1.4 2.74404 -40.02 160.763
1139 -6 13.5 1.4 2.7998 -44.0837 67.3185
1140 -5.75 13.5 1.4 2.87627 -46.9174 102.678
1141 -5.5 13.5 1.4 2.97187 -42.7142 -142.751
1142 -5.25 13.5 1.4 3.08482 -44.569 -121.697
1143 -5 13.5 1.4 3.21329 -53.2161 -85.2208
1144 -4.75 13.5 1.4 3.35549 -42.5373 150.635
1145 -4.5 13.5 1.4 3.50976 -51.5926 61.0388
1146 -4.25 13.5 1.4 3.67457 -46.7349 -35.0542
1147 -4 13.5 1.4 3.84858 -43.1687 143.118
1148 -3.75 13.5 1.4 4.03059 -47.6667 -18.6402
1149 -3.5 13.5 1.4 4.21957 -47.2363 117.702
1150 -3.25 13.5 1.4 4.41462 -59.5228 57.7005
1151 -3 13.5 1.4 4.61497 -45.5825 103.411
1152 -2.75 13.5 1.4 4.81996 -42.8723 155.55
1153 -2.5 13.5 1.4 5.02903 -48.8588 -102.685
1154 -2.25 13.5 1.4 5.24168 -50.0002 6.96403
1155 -2 13.5 1.4 5.4575 -49.7038 93.6341
1156 -1.75 13.5 1.4 5.67612 -47.3533 111.369
1157 -1.5 13.5 1.4 5.89724 -52.2718 128.66
1158 -1.25 13.5 1.4 6.12058 -56.3717 153
1159 -1 13.5 1.4 6.34592 -61.3624 177.101
1160 -0.75 13.5 1.4 6.57303 -57.7877 -170.812
1161 -0.5 13.5 1.4 6.80175 -56.1803 151.247
1162 -0.25 13.5 1.4 7.03192 -57.965 -105.128
1163 -1.77636e-15 13.5 1.4 7.2634 -52.4425 -161.97
1164 0.25 13.5 1.4 7.49607 -66.1375 65.1017
1165 0.5 13.5 1.4 7.72982 -62.2933 -140.437
1166 0.75 13.5 1.4 7.96456 -63.8421 38.3266
1167 1 13.5 1.4 8.2002 -62.4288 -84.9278
1168 1.25 13.5 1.4 8.43667 -60.6228 116.207
1169 1.5 13.5 1.4 8.6739 -80.7174 -92.8057
1170 1.75 13.5 1.4 8.91182 -61.0678 139.155
1171 2 13.5 1.4 9.15039 -60.7799 -72.8065
1172 2.25 13.5 1.4 9.38956 -51.2654 105.098
1173 2.5 13.5 1.4 9.62927 -62.4257 -107.721
1174 2.75 13.5 1.4 9.8695 -54.4903 88.8492
1175 3 13.5 1.4 10.1102 -59.7551 167.732
1176 3.25 13.5 1.4 10.3513 -62.6752 22.4147
1177 3.5 13.5 1.4 10.5929 -57.7215 92.8013
1178 3.75 13.5 1.4 10.8348 -58.7648 -130.26
1179 4 13.5 1.4 11.0771 -52.0709 42.5777
1180 4.25 13.5 1.4 11.3197 -61.4578 161.892
1181 4.5 13.5 1.4 11.5627 -55.1639 -58.816
1182 4.75 13.5 1.4 11.8059 -54.3661 52.2882
1183 5 13.5 1.4 12.0494 -62.378 93.209
1184 5.25 13.5 1.4 12.2932 -65.1703 -139.546
1185 5.5 13.5 1.4 12.5372 -55.3987 -45.6889
1186 5.75 13.5 1.4 12.7815 -54.3154 6.82816
1187 6 13.5 1.4 13.0259 -60.3512 138.549
1188 6.25 13.5 1.4 13.2706 -58.3349 -92.8185
1189 6.5 13.5 1.4 13.5155 -61.7183 -19.1051
1190 6.75 13.5 1.4 13.7605 -80.395 83.119
1191 7 13.5 1.4 14.0058 -57.7122 67.5714
1192 7.25 13.5 1.4 14.2512 -60.4702 160.272
1193 7.5 13.5 1.4 14.4967 -54.9025 -160.669
1194 7.75 13.5 1.4 14.7424 -56.1953 -79.9484
1195 8 13.5 1.4 14.9883 -64.8229 39.8239
1196 8.25 13.5 1.4 15.2342 -62.0099 -145.137
1197 8.5 13.5 1.4 15.4803 -64.2086 -71.6635
1198 8.75 13.5 1.4 15.7266 -67.498 -13.3764
1199 9 13.5 1.4 15.9729 -60.5811 94.9876
1200 9.25 13.5 1.4 16.2194 -66.1474 -177.913
1201 9.5 13.5 1.4 16.4659 -56.1174 -110.116
1202 9.75 13.5 1.4 16.7126 -52.7174 -7.23864
1203 10 13.5 1.4 16.9594 -57.6318 71.4362
1204 10.25 13.5 1.4 17.2062 -60.8183 123.088
1205 10.5 13.5 1.4 17.4532 -59.7175 -167.01
1206 10.75 13.5 1.4 17.7002 -65.0312 -40.1847
1207 11 13.5 1.4 17.9473 -58.6912 82.5488
1208 11.25 13.5 1.4 18.1945 -62.2653 85.825
1209 11.5 13.5 1.4 18.4418 -59.3626 133.386
1210 11.75 13.5 1.4 18.6891 -56.7673 -168.921
1211 12 13.5 1.4 18.9366 -58.0999 -91.4201
1212 12.25 13.5 1.4 19.184 -68.5601 -32.5603
1213 12.5 13.5 1.4 19.4316 -71.9524 -112.138
1214 12.75 13.5 1.4 19.6792 -62.4245 75.3689
1215 13 13.5 1.4 19.9269 -60.5348 175.801
1216 13.25 13.5 1.4 20.1746 -64.309 -50.446
1217 13.5 13.5 1.4 20.4224 -70.3708 33.9118
1218 13.75 13.5 1.4 20.6702 -73.836 -48.277
1219 14 13.5 1.4 20.9181 -72.6675 37.5741
1220 14.25 13.5 1.4 21.166 -62.6041 121.17
1221 14.5 13.5 1.4 21.414 -68.6746 121.688
1222 14.75 13.5 1.4 21.662 -68.8324 169.499
1223 15 13.5 1.4 21.9101 -66.3057 119.413
1224 15.25 13.5 1.4 22.1582 -63.6351 -165.457
1225 15.5 13.5 1.4 22.4064 -64.7368 -96.4472
1226 15.75 13.5 1.4 22.6546 -66.5789 -25.1472
1227 16 13.5 1.4 22.9028 -62.189 -145.313
1228 16.25 13.5 1.4 23.1511 -59.3104 -100.815
1229 16.5 13.5 1.4 23.3994 -60.3084 -70.5409
1230 16.75 13.5 1.4 23.6477 -65.5837 2.57813
1231 17 13.5 1.4 23.8961 -69.706 -72.4174
1232 17.25 13.5 1.4 24.1445 -62.0596 -60.9873
1233 17.5 13.5 1.4 24.393 -64.0369 -23.2346
1234 17.75 13.5 1.4 24.6415 -64.9446 32.3401
1235 18 13.5 1.4 24.89 -63.7884 84.0896
1236 18.25 13.5 1.4 25.1385 -63.1636 -177.6
1237 18.5 13.5 1.4 25.3871 -68.4094 -49.7187
1238 18.75 13.5 1.4 25.6357 -68.9335 -18.9819
1239 19 13.5 1.4 25.8843 -65.556 148.355
1240 19.25 13.5 1.4 26.133 -61.1998 -150.677
1241 19.5 13.5 1.4 26.3816 -63.1711 -105.049
1242 19.75 13.5 1.4 26.6303 -68.2022 -15.5376
1243 20 13.5 1.4 26.8791 -80.9147 57.5238
1244 20.25 13.5 1.4 27.1278 -64.2433 -92.2801
1245 20.5 13.5 1.4 27.3766 -70.0943 -85.2521
1246 20.75 13.5 1.4 27.6254 -63.3749 -52.1418
1247 21 13.5 1.4 27.8742 -88.3874 69.5259
1248 21.25 13.5 1.4 28.123 -66.0277 -140.941
1249 21.5 13.5 1.4 28.3719 -67.4101 105.836
1250 21.75 13.5 1.4 28.6208 -64.9205 -142.332
1251 22 13.5 1.4 28.8697 -62.3367 -117.39
1252 22.25 13.5 1.4 29.1186 -69.6505 -107.235
1253 22.5 13.5 1.4 29.3675 -62.9609 -93.068
1254 22.75 13.5 1.4 29.6165 -66.0581 -107.959
1255 23 13.5 1.4 29.8654 -64.2574 -92.1366
1256 23.25 13.5 1.4 30.1144 -69.2431 157.611
1257 23.5 13.5 1.4 30.3634 -63.3168 -169.264
1258 23.75 13.5 1.4 30.6124 -63.6367 -159.192
1259 24 13.5 1.4 30.8615 -82.7443 -38.7339
1260 24.25 13.5 1.4 31.1105 -69.9767 24.3041
1261 -7 13.75 1.4 2.46279 -40.834 -110.902
1262 -6.75 13.75 1.4 2.44937 -40.4709 -15.4452
1263 -6.5 13.75 1.4 2.4614 -51.966 26.5657
1264 -6.25 13.75 1.4 2.49852 -45.5163 140.741
1265 -6 13.75 1.4 2.55963 -39.4503 6.21707
1266 -5.75 13.75 1.4 2.64306 -57.2647 -49.1134
1267 -5.5 13.75 1.4 2.74679 -38.9734 178.997
1268 -5.25 13.75 1.4 2.86861 -50.0597 70.3507
1269 -5 13.75 1.4 3.00633 -56.551 133.686
1270 -4.75 13.75 1.4 3.15787 -50.0786 36.7285
1271 -4.5 13.75 1.4 3.32133 -42.0221 -91.4785
1272 -4.25 13.75 1.4 3.49504 -45.8198 72.6097
1273 -4 13.75 1.4 3.67755 -47.9669 -77.1257
1274 -3.75 13.75 1.4 3.86762 -52.7736 47.2863
1275 -3.5 13.75 1.4 4.06418 -48.1425 -99.3925
1276 -3.25 13.75 1.4 4.26634 -49.3273 12.0226
1277 -3 13.75 1.4 4.47334 -48.8423 127.161
1278 -2.75 13.75 1.4 4.68453 -44.3692 -157.02
1279 -2.5 13.75 1.4 4.89938 -46.5476 -71.4122
1280 -2.25 13.75 1.4 5.11742 -49.1092 -42.1757
1281 -2 13.75 1.4 5.33827 -50.7674 -38.3244
1282 -1.75 13.75 1.4 5.56158 -52.0648 -27.428
1283 -1.5 13.75 1.4 5.78708 -60.7717 -19.3232
1284 -1.25 13.75 1.4 6.01451 -60.5435 51.2177
1285 -1 13.75 1.4 6.24367 -60.061 27.8781
1286 -0.75 13.75 1.4 6.47438 -60.5567 32.0662
1287 -0.5 13.75 1.4 6.70646 -58.0308 22.3405
1288 -0.25 13.75 1.4 6.93979 -57.3946 62.6184
1289 -1.77636e-15 13.75 1.4 7.17425 -54.2167 -3.42804
1290 0.25 13.75 1.4 7.40972 -57.9518 -137.633
1291 0.5 13.75 1.4 7.64611 -57.6512 80.3861
1292 0.75 13.75 1.4 7.88334 -57.5835 -88.5454
1293 1 13.75 1.4 8.12134 -65.5004 145.635
1294 1.25 13.75 1.4 8.36004 -57.7374 -71.7639
1295 1.5 13.75 1.4 8.59938 -60.12 -139.33
1296 1.75 13.75 1.4 8.83931 -55.4058 -94.1483
1297 2 13.75 1.4 9.07979 -60.4434 130.9
1298 2.25 13.75 1.4 9.32076 -52.4775 -66.255
1299 2.5 13.75 1.4 9.5622 -57.0554 140.147
1300 2.75 13.75 1.4 9.80407 -56.3884 -86.4005
1301 3 13.75 1.4 10.0463 -57.9444 107.067
1302 3.25 13.75 1.4 10.289 -57.3962 -112.789
1303 3.5 13.75 1.4 10.532 -70.2233 102.548
1304 3.75 13.75 1.4 10.7753 -65.7065 169.192
1305 4 13.75 1.4 11.0189 -63.9107 -136.847
1306 4.25 13.75 1.4 11.2627 -61.1783 90.746
1307 4.5 13.75 1.4 11.5069 -65.4728 160.529
1308 4.75 13.75 1.4 11.7513 -54.6706 -60.0748
1309 5 13.75 1.4 11.9959 -55.9275 104.547
1310 5.25 13.75 1.4 12.2407 -55.1345 -161.898
1311 5.5 13.75 1.4 12.4858 -54.6988 -68.1707
1312 5.75 13.75 1.4 12.731 -58.4177 68.0652
1313 6 13.75 1.4 12.9764 -64.8709 140.79
1314 6.25 13.75 1.4 13.222 -58.6681 171.395
1315 6.5 13.75 1.4 13.4678 -59.3684 -131.734
1316 6.75 13.75 1.4 13.7137 -57.8807 -25.3617
1317 7 13.75 1.4 13.9597 -57.8726 102.871
1318 7.25 13.75 1.4 14.2059 -55.3061 167.433
1319 7.5 13.75 1.4 14.4522 -54.411 -87.3343
1320 7.75 13.75 1.4 14.6987 -56.8792 -40.3595
1321 8 13.75 1.4 14.9453 -62.9911 46.7464
1322 8.25 13.75 1.4 15.1919 -72.9637 67.9555
1323 8.5 13.75 1.4 15.4387 -69.2018 11.3878
1324 8.75 13.75 1.4 15.6856 -65.5595 63.6897
1325 9 13.75 1.4 15.9326 -60.7556 82.6277
1326 9.25 13.75 1.4 16.1797 -59.1454 -165.693
1327 9.5 13.75 1.4 16.4268 -56.185 -74.3661
1328 9.75 13.75 1.4 16.6741 -61.4298 -20.9594
1329 10 13.75 1.4 16.9214 -59.1599 86.731
1330 10.25 13.75 1.4 17.1688 -67.0816 -130.589
1331 10.5 13.75 1.4 17.4163 -62.4455 -127.645
1332 10.75 13.75 1.4 17.6638 -58.2966 -121.022
1333 11 13.75 1.4 17.9114 -58.8558 -42.4141
1334 11.25 13.75 1.4 18.1591 -59.4353 79.2352
1335 11.5 13.75 1.4 18.4069 -68.7656 107.437
1336 11.75 13.75 1.4 18.6547 -67.0042 -172.297
1337 12 13.75 1.4 18.9025 -59.0123 -88.9754
1338 12.25 13.75 1.4 19.1505 -58.0635 -27.1435
1339 12.5 13.75 1.4 19.3984 -61.3225 11.4109
1340 12.75 13.75 1.4 19.6465 -65.3711 11.1412
1341 13 13.75 1.4 19.8945 -63.0016 47.1997
1342 13.25 13.75 1.4 20.1427 -69.7553 163.957
1343 13.5 13.75 1.4 20.3908 -69.7465 -12.6759
1344 13.75 13.75 1.4 20.639 -65.0367 122.257
1345 14 13.75 1.4 20.8873 -65.2737 -116.26
1346 14.25 13.75 1.4 21.1356 -59.4365 -19.8818
1347 14.5 13.75 1.4 21.3839 -67.779 112.799
1348 14.75 13.75 1.4 21.6323 -68.7736 -40.5863
1349 15 13.75 1.4 21.8807 -59.6856 27.4263
1350 15.25 13.75 1.4 22.1291 -70.226 122.463
1351 15.5 13.75 1.4 22.3776 -71.616 -28.7691
1352 15.75 13.75 1.4 22.6261 -60.8854 81.0695
1353 16 13.75 1.4 22.8747 -61.6986 109.687
1354 16.25 13.75 1.4 23.1233 -68.0709 158.054
1355 16.5 13.75 1.4 23.3719 -72.1634 159.921
1356 16.75 13.75 1.4 23.6205 -66.7629 103.528
1357 17 13.75 1.4 23.8692 -66.0699 101.019
1358 17.25 13.75 1.4 24.1179 -63.4248 168.873
1359 17.5 13.75 1.4 24.3666 -63.081 -105.248
1360 17.75 13.75 1.4 24.6153 -65.3589 48.2556
1361 18 13.75 1.4 24.8641 -59.299 127.589
1362 18.25 13.75 1.4 25.1129 -66.0779 -173.445
1363 18.5 13.75 1.4 25.3617 -71.4019 -2.7215
1364 18.75 13.75 1.4 25.6106 -62.7218 77.68
1365 19 13.75 1.4 25.8594 -60.6689 147.758
1366 19.25 13.75 1.4 26.1083 -73.2493 -156.948
1367 19.5 13.75 1.4 26.3572 -69.3284 -90.6537
1368 19.75 13.75 1.4 26.6062 -71.2655 69.8341
1369 20 13.75 1.4 26.8551 -63.8523 133.993
1370 20.25 13.75 1.4 27.1041 -63.7824 -151.792
1371 20.5 13.75 1.4 27.3531 -65.767 -41.5632
1372 20.75 13.75 1.4 27.6021 -73.1006 38.2164
1373 21 13.75 1.4 27.8511 -72.7149 -46.0805
1374 21.25 13.75 1.4 28.1001 -66.5741 92.752
1375 21.5 13.75 1.4 28.3492 -66.8742 93.1386
1376 21.75 13.75 1.4 28.5983 -69.862 126.932
1377 22 13.75 1.4 28.8474 -66.7474 69.8952
1378 22.25 13.75 1.4 29.0965 -71.2272 91.6227
1379 22.5 13.75 1.4 29.3456 -66.7574 69.429
1380 22.75 13.75 1.4 29.5947 -67.281 105.944
1381 23 13.75 1.4 29.8439 -59.4272 65.4233
1382 23.25 13.75 1.4 30.093 -63.7681 84.3834
1383 23.5 13.75 1.4 30.3422 -62.179 95.4575
1384 23.75 13.75 1.4 30.5914 -74.3907 77.1532
1385 24 13.75 1.4 30.8406 -72.2141 44.5193
1386 24.25 13.75 1.4 31.0898 -68.6169 33.2441
1387 -7 14 1.4 2.2143 -40.9179 -81.5899
1388 -6.75 14 1.4 2.19937 -38.0064 -19.7916
1389 -6.5 14 1.4 2.21276 -39.8513 -22.9573
1390 -6.25 14 1.4 2.25398 -50.3111 -145.348
1391 -6 14 1.4 2.32153 -44.1388 -29.3971
1392 -5.75 14 1.4 2.41321 -41.3595 95.7881
1393 -5.5 14 1.4 2.5264 -42.8883 99.4413
1394 -5.25 14 1.4 2.65834 -39.9424 77.5015
1395 -5 14 1.4 2.8064 -45.3657 -11.2456
1396 -4.75 14 1.4 2.96816 -42.9088 -160.52
1397 -4.5 14 1.4 3.1415 -49.5396 55.2694
1398 -4.25 14 1.4 3.32462 -68.6695 166.243
1399 -4 14 1.4 3.51599 -44.7692 86.3854
1400 -3.75 14 1.4 3.71434 -47.587 -155.148
1401 -3.5 14 1.4 3.9186 -46.1809 -71.4101
1402 -3.25 14 1.4 4.12789 -44.9915 44.2163
1403 -3 14 1.4 4.34149 -47.6301 147.775
1404 -2.75 14 1.4 4.5588 -54.6026 -164.888
1405 -2.5 14 1.4 4.7793 -59.9066 -119.44
1406 -2.25 14 1.4 5.00258 -61.352 171.526
1407 -2 14 1.4 5.22828 -62.3431 179.327
1408 -1.75 14 1.4 5.4561 -60.7018 -118.047
1409 -1.5 14 1.4 5.68578 -59.5282 -77.9207
1410 -1.25 14 1.4 5.91711 -61.2142 -135.744
1411 -1 14 1.4 6.1499 -63.4288 174.995
1412 -0.75 14 1.4 6.38399 -83.0827 -124.159
1413 -0.5 14 1.4 6.61925 -61.9573 46.4309
1414 -0.25 14 1.4 6.85555 -60.3737 73.8779
1415 -1.77636e-15 14 1.4 7.09279 -56.7847 113.012
1416 0.25 14 1.4 7.33088 -53.6503 45.2968
1417 0.5 14 1.4 7.56973 -68.5943 -64.2697
1418 0.75 14 1.4 7.80928 -52.5975 109.164
1419 1 14 1.4 8.04947 -60.9531 19.215
1420 1.25 14 1.4 8.29024 -59.4808 118.63
1421 1.5 14 1.4 8.53154 -62.9708 -74.6472
1422 1.75 14 1.4 8.77333 -70.3151 70.8143
1423 2 14 1.4 9.01556 -57.8947 -66.7126
1424 2.25 14 1.4 9.25821 -65.1996 108.377
1425 2.5 14 1.4 9.50124 -63.216 -8.42532
1426 2.75 14 1.4 9.74462 -62.5738 171.746
1427 3 14 1.4 9.98833 -56.911 -46.8402
1428 3.25 14 1.4 10.2323 -55.3442 134.856
1429 3.5 14 1.4 10.4766 -57.9805 -66.1985
1430 3.75 14 1.4 10.7212 -58.7214 97.457
1431 4 14 1.4 10.966 -61.0257 -138.095
1432 4.25 14 1.4 11.211 -61.9912 24.3824
1433 4.5 14 1.4 11.4563 -57.6843 160.784
1434 4.75 14 1.4 11.7017 -64.3235 -25.6007
1435 5 14 1.4 11.9474 -64.0201 -3.1272
1436 5.25 14 1.4 12.1932 -60.7177 -172.161
1437 5.5 14 1.4 12.4392 -63.5986 -170.874
1438 5.75 14 1.4 12.6853 -58.9349 -37.0393
1439 6 14 1.4 12.9316 -57.8672 76.1863
1440 6.25 14 1.4 13.178 -54.093 167.959
1441 6.5 14 1.4 13.4246 -54.1901 -101.181
1442 6.75 14 1.4 13.6712 -56.5224 -7.24822
1443 7 14 1.4 13.9181 -57.0814 77.7413
1444 7.25 14 1.4 14.165 -56.4051 -163.671
1445 7.5 14 1.4 14.412 -61.0842 -72.4408
1446 7.75 14 1.4 14.6591 -55.8245 18.7347
1447 8 14 1.4 14.9063 -64.7322 111.599
1448 8.25 14 1.4 15.1536 -66.5804 93.1747
1449 8.5 14 1.4 15.401 -64.3544 -167.351
1450 8.75 14 1.4 15.6485 -66.5926 -35.9193
1451 9 14 1.4 15.8961 -59.8396 148.825
1452 9.25 14 1.4 16.1437 -58.526 -112.992
1453 9.5 14 1.4 16.3914 -60.4301 -64.8144
1454 9.75 14 1.4 16.6392 -62.7567 98.4089
1455 10 14 1.4 16.887 -65.458 87.4417
1456 10.25 14 1.4 17.1349 -60.5547 128.051
1457 10.5 14 1.4 17.3829 -58.1091 -157.479
1458 10.75 14 1.4 17.6309 -58.3028 -75.9234
1459 11 14 1.4 17.879 -58.2847 -42.1248
1460 11.25 14 1.4 18.1271 -58.1198 -8.58421
1461 11.5 14 1.4 18.3753 -58.4406 96.9572
1462 11.75 14 1.4 18.6235 -65.313 147.356
1463 12 14 1.4 18.8718 -61.3352 121.546
1464 12.25 14 1.4 19.1201 -67.359 -113.453
1465 12.5 14 1.4 19.3685 -65.4813 117.371
1466 12.75 14 1.4 19.6169 -65.6196 -167.884
1467 13 14 1.4 19.8653 -68.9041 73.3502
1468 13.25 14 1.4 20.1138 -73.4575 -172.405
1469 13.5 14 1.4 20.3623 -65.3711 -164.921
1470 13.75 14 1.4 20.6109 -82.4169 -156.399
1471 14 14 1.4 20.8594 -63.7814 -122.756
1472 14.25 14 1.4 21.1081 -61.6755 -56.6931
1473 14.5 14 1.4 21.3567 -66.6881 -80.6066
1474 14.75 14 1.4 21.6054 -69.6284 -91.4065
1475 15 14 1.4 21.8541 -70.4485 -36.2819
1476 15.25 14 1.4 22.1029 -66.1827 28.1974
1477 15.5 14 1.4 22.3516 -73.711 133.031
1478 15.75 14 1.4 22.6004 -67.0854 -81.0087
1479 16 14 1.4 22.8493 -68.3871 8.87458
1480 16.25 14 1.4 23.0981 -65.5783 102.68
1481 16.5 14 1.4 23.347 -65.6294 -106.223
1482 16.75 14 1.4 23.5959 -66.2958 -32.0137
1483 17 14 1.4 23.8448 -75.481 -123.08
1484 17.25 14 1.4 24.0938 -61.9693 -165.256
1485 17.5 14 1.4 24.3427 -58.2664 -89.642
1486 17.75 14 1.4 24.5917 -64.5041 -9.31664
1487 18 14 1.4 24.8407 -66.8972 119.593
1488 18.25 14 1.4 25.0898 -67.3515 -91.7122
1489 18.5 14 1.4 25.3388 -60.5779 -32.2503
1490 18.75 14 1.4 25.5879 -60.9767 22.1576
1491 19 14 1.4 25.837 -68.4124 -30.6658
1492 19.25 14 1.4 26.0861 -63.3072 -94.7024
1493 19.5 14 1.4 26.3352 -61.1417 -0.385163
1494 19.75 14 1.4 26.5843 -66.6202 37.1933
1495 20 14 1.4 26.8335 -76.129 112.655
1496 20.25 14 1.4 27.0826 -75.0107 -131.246
1497 20.5 14 1.4 27.3318 -71.8011 -13.8313
1498 20.75 14 1.4 27.581 -74.5497 -176.135
1499 21 14 1.4 27.8302 -67.9369 -98.2585
1500 21.25 14 1.4 28.0794 -64.9246 -72.8601
1501 21.5 14 1.4 28.3287 -66.3252 -152.209
1502 21.75 14 1.4 28.5779 -64.3202 -132.216
1503 22 14 1.4 28.8272 -63.7392 -112.421
1504 22.25 14 1.4 29.0765 -65.8961 -66.9419
1505 22.5 14 1.4 29.3258 -63.6076 -107.835
1506 22.75 14 1.4 29.5751 -71.5804 -76.9058
1507 23 14 1.4 29.8244 -70.8294 -100.412
1508 23.25 14 1.4 30.0737 -63.2037 -89.1034
1509 23.5 14 1.4 30.323 -61.6052 -99.8436
1510 23.75 14 1.4 30.5724 -65.7711 -93.3963
1511 24 14 1.4 30.8217 -69.5747 -98.0963
1512 24.25 14 1.4 31.0711 -65.9789 -70.3861
1513 -7 14.25 1.4 1.96621 -38.3744 -100.205
1514 -6.75 14.25 1.4 1.94937 -40.7646 -55.8767
1515 -6.5 14.25 1.4 1.96447 -37.1566 -67.073
1516 -6.25 14.25 1.4 2.01078 -36.5607 -163.262
1517 -6 14.25 1.4 2.08622 -53.4481 -26.7443
1518 -5.75 14.25 1.4 2.18779 -39.4015 -24.2532
1519 -5.5 14.25 1.4 2.31203 -50.7785 33.3024
1520 -5.25 14.25 1.4 2.45552 -44.0452 -29.7184
1521 -5 14.25 1.4 2.61509 -43.1962 -142.939
1522 -4.75 14.25 1.4 2.78797 -50.3198 9.63642
1523 -4.5 14.25 1.4 2.97184 -42.8849 -115.339
1524 -4.25 14.25 1.4 3.1648 -44.4317 41.9664
1525 -4 14.25 1.4 3.36527 -44.2741 156.605
1526 -3.75 14.25 1.4 3.57199 -41.8091 -115.296
1527 -3.5 14.25 1.4 3.78394 -43.5604 -50.193
1528 -3.25 14.25 1.4 4.00029 -51.6824 11.4032
1529 -3 14.25 1.4 4.22035 -55.2439 -71.75
1530 -2.75 14.25 1.4 4.44359 -54.2644 -54.0501
1531 -2.5 14.25 1.4 4.66954 -52.6444 -39.7726
1532 -2.25 14.25 1.4 4.89782 -64.5214 -44.0557
1533 -2 14.25 1.4 5.12813 -66.6677 137.872
1534 -1.75 14.25 1.4 5.36021 -57.0472 95.643
1535 -1.5 14.25 1.4 5.59383 -62.8868 114.313
1536 -1.25 14.25 1.4 5.82881 -64.6374 -111.454
1537 -1 14.25 1.4 6.06499 -61.8048 -113.301
1538 -0.75 14.25 1.4 6.30224 -61.6383 -131.23
1539 -0.5 14.25 1.4 6.54043 -63.7872 -134.98
1540 -0.25 14.25 1.4 6.77948 -83.1604 152.035
1541 -1.77636e-15 14.25 1.4 7.01929 -70.3326 133.23
1542 0.25 14.25 1.4 7.25979 -56.849 176.733
1543 0.5 14.25 1.4 7.50091 -59.1723 82.8166
1544 0.75 14.25 1.4 7.74259 -56.0822 -49.9518
1545 1 14.25 1.4 7.98479 -55.4336 179.854
1546 1.25 14.25 1.4 8.22745 -69.8213 116.424
1547 1.5 14.25 1.4 8.47054 -70.931 -151.782
1548 1.75 14.25 1.4 8.71402 -69.7602 -2.53667
1549 2 14.25 1.4 8.95786 -66.9042 -76.5258
1550 2.25 14.25 1.4 9.20202 -64.5407 124.362
1551 2.5 14.25 1.4 9.4465 -66.3203 -117.245
1552 2.75 14.25 1.4 9.69126 -71.7588 133.568
1553 3 14.25 1.4 9.93627 -59.433 -152.432
1554 3.25 14.25 1.4 10.1815 -63.6051 0.473636
1555 3.5 14.25 1.4 10.427 -57.6353 171.627
1556 3.75 14.25 1.4 10.6727 -61.7587 -84.5106
1557 4 14.25 1.4 10.9186 -59.2823 81.3987
1558 4.25 14.25 1.4 11.1647 -60.3211 -132.608
1559 4.5 14.25 1.4 11.4109 -59.5698 -17.4521
1560 4.75 14.25 1.4 11.6573 -56.2267 166.338
1561 5 14.25 1.4 11.9039 -62.5927 -89.7216
1562 5.25 14.25 1.4 12.1506 -54.953 53.2864
1563 5.5 14.25 1.4 12.3974 -57.7116 -160.745
1564 5.75 14.25 1.4 12.6443 -60.896 -67.6153
1565 6 14.25 1.4 12.8914 -55.2357 70.1477
1566 6.25 14.25 1.4 13.1386 -56.9672 168.259
1567 6.5 14.25 1.4 13.3859 -59.7985 -89.196
1568 6.75 14.25 1.4 13.6333 -58.3988 3.21346
1569 7 14.25 1.4 13.8807 -57.8738 87.8073
1570 7.25 14.25 1.4 14.1283 -64.1813 170.486
1571 7.5 14.25 1.4 14.376 -67.314 -79.2786
1572 7.75 14.25 1.4 14.6237 -63.4255 -111.096
1573 8 14.25 1.4 14.8715 -59.8481 62.3499
1574 8.25 14.25 1.4 15.1194 -59.3922 165.313
1575 8.5 14.25 1.4 15.3673 -60.2347 -89.747
1576 8.75 14.25 1.4 15.6153 -65.9486 62.8378
1577 9 14.25 1.4 15.8634 -68.9746 -108.787
1578 9.25 14.25 1.4 16.1115 -59.0142 -21.3186
1579 9.5 14.25 1.4 16.3597 -59.2555 13.5942
1580 9.75 14.25 1.4 16.608 -62.0184 33.7329
1581 10 14.25 1.4 16.8563 -59.7955 81.9995
1582 10.25 14.25 1.4 17.1046 -59.7196 132.251
1583 10.5 14.25 1.4 17.353 -57.9128 -179.883
1584 10.75 14.25 1.4 17.6015 -61.3113 -74.3607
1585 11 14.25 1.4 17.8499 -63.4153 -12.1103
1586 11.25 14.25 1.4 18.0985 -64.2072 -0.519443
1587 11.5 14.25 1.4 18.347 -64.0449 52.5162
1588 11.75 14.25 1.4 18.5956 -61.2765 160.491
1589 12 14.25 1.4 18.8443 -67.1525 -130.324
1590 12.25 14.25 1.4 19.093 -61.8418 177.781
1591 12.5 14.25 1.4 19.3417 -57.1467 -81.9678
1592 12.75 14.25 1.4 19.5904 -66.0241 -1.57743
1593 13 14.25 1.4 19.8392 -61.3238 -68.188
1594 13.25 14.25 1.4 20.088 -60.1481 -7.20038
1595 13.5 14.25 1.4 20.3368 -65.3369 61.6951
1596 13.75 14.25 1.4 20.5857 -66.499 -7.74249
1597 14 14.25 1.4 20.8346 -58.9676 72.4416
1598 14.25 14.25 1.4 21.0835 -63.054 155.847
1599 14.5 14.25 1.4 21.3324 -67.6589 36.2004
1600 14.75 14.25 1.4 21.5814 -59.1859 120.136
1601 15 14.25 1.4 21.8304 -61.5122 -153.648
1602 15.25 14.25 1.4 22.0794 -72.9773 153.928
1603 15.5 14.25 1.4 22.3284 -62.4972 151.073
1604 15.75 14.25 1.4 22.5775 -61.5836 -127.246
1605 16 14.25 1.4 22.8266 -62.8114 -24.4676
1606 16.25 14.25 1.4 23.0757 -65.1 118.95
1607 16.5 14.25 1.4 23.3248 -61.4844 -100.775
1608 16.75 14.25 1.4 23.5739 -60.1973 -20.1174
1609 17 14.25 1.4 23.8231 -61.7149 66.5022
1610 17.25 14.25 1.4 24.0722 -75.4662 -179.263
1611 17.5 14.25 1.4 24.3214 -65.8462 1.41397
1612 17.75 14.25 1.4 24.5706 -63.4416 53.5828
1613 18 14.25 1.4 24.8198 -64.5452 128.668
1614 18.25 14.25 1.4 25.0691 -61.8899 176.096
1615 18.5 14.25 1.4 25.3183 -72.1367 -116.815
1616 18.75 14.25 1.4 25.5676 -66.1252 115.91
1617 19 14.25 1.4 25.8169 -63.8228 173.057
1618 19.25 14.25 1.4 26.0662 -63.4573 -164.965
1619 19.5 14.25 1.4 26.3155 -65.3208 -65.4981
1620 19.75 14.25 1.4 26.5648 -72.8413 -19.3395
1621 20 14.25 1.4 26.8141 -64.5138 -155.901
1622 20.25 14.25 1.4 27.0635 -76.0528 -163.037
1623 20.5 14.25 1.4 27.3128 -73.5726 13.7377
1624 20.75 14.25 1.4 27.5622 -73.196 14.108
1625 21 14.25 1.4 27.8116 -65.6019 141.499
1626 21.25 14.25 1.4 28.061 -75.6221 146.353
1627 21.5 14.25 1.4 28.3104 -63.5068 40.3318
1628 21.75 14.25 1.4 28.5598 -65.5693 59.2652
1629 22 14.25 1.4 28.8092 -70.9893 64.4126
1630 22.25 14.25 1.4 29.0586 -70.7292 98.1204
1631 22.5 14.25 1.4 29.3081 -67.4553 95.8607
1632 22.75 14.25 1.4 29.5575 -74.3978 47.5001
1633 23 14.25 1.4 29.807 -72.8928 93.3201
1634 23.25 14.25 1.4 30.0565 -75.1882 -171.832
1635 23.5 14.25 1.4 30.3059 -87.3385 129.425
1636 23.75 14.25 1.4 30.5554 -63.3135 119.172
1637 24 14.25 1.4 30.8049 -62.1803 58.0592
1638 24.25 14.25 1.4 31.0544 -66.376 107.284
