#Rx
# X(m), Y(m), Z(m), Distance(m), Power (dBm) Phase (deg)
1 -7 11.25 1.4 12.8912 -63.5106 117.352
2 -6.75 11.25 1.4 12.6517 -58.2375 60.0008
3 -6.5 11.25 1.4 12.4127 -52.8525 54.3081
4 -6.25 11.25 1.4 12.174 -50.9143 49.5256
5 -6 11.25 1.4 11.9359 -52.3164 31.8808
6 -5.75 11.25 1.4 11.6982 -60.2843 3.45828
7 -5.5 11.25 1.4 11.461 -56.9284 -37.561
8 -5.25 11.25 1.4 11.2244 -58.7394 -75.4728
9 -5 11.25 1.4 10.9884 -56.9713 -57.2314
10 -4.75 11.25 1.4 10.7531 -55.2705 -108.749
11 -4.5 11.25 1.4 10.5184 -57.0486 -133.503
12 -4.25 11.25 1.4 10.2844 -55.6683 -156.751
13 -4 11.25 1.4 10.0512 -53.428 164.822
14 -3.75 11.25 1.4 9.81886 -53.8114 135.761
15 -3.5 11.25 1.4 9.58737 -53.6491 106.129
16 -3.25 11.25 1.4 9.35684 -53.2299 52.5298
17 -3 11.25 1.4 9.12734 -51.619 -30.5209
18 -2.75 11.25 1.4 8.89893 -53.4367 -24.0457
19 -2.5 11.25 1.4 8.67173 -52.5852 -90.4571
20 -2.25 11.25 1.4 8.4458 -54.7098 -132.485
21 -2 11.25 1.4 8.22128 -52.684 165.129
22 -1.75 11.25 1.4 7.99826 -60.2508 -153.977
23 -1.5 11.25 1.4 7.77688 -61.2374 133.325
24 -1.25 11.25 1.4 7.5573 -62.5987 93.3912
25 -1 11.25 1.4 7.33965 -60.5864 2.17945
26 -0.75 11.25 1.4 7.12413 -64.2085 -85.8445
27 -0.5 11.25 1.4 6.91094 -66.1947 -170.248
28 -0.25 11.25 1.4 6.70029 -60.8102 116.536
29 -1.77636e-15 11.25 1.4 6.49243 -62.444 -20.1761
30 0.25 11.25 1.4 6.28764 -58.7861 -101.195
31 0.5 11.25 1.4 6.08623 -55.6312 121.047
32 0.75 11.25 1.4 5.88854 -50.5199 -46.2689
33 1 11.25 1.4 5.69497 -51.1032 160.738
34 1.25 11.25 1.4 5.50595 -55.2033 -19.7247
35 1.5 11.25 1.4 5.32196 -58.5092 -157.312
36 1.75 11.25 1.4 5.14355 -52.1717 20.6799
37 2 11.25 1.4 4.9713 -53.3852 -173.825
38 2.25 11.25 1.4 4.8059 -51.5053 -46.7833
39 2.5 11.25 1.4 4.64805 -54.3739 52.3763
40 2.75 11.25 1.4 4.49858 -55.3908 162.277
41 3 11.25 1.4 4.35832 -51.4038 -170.652
42 3.25 11.25 1.4 4.22821 -48.7689 -146.482
43 3.5 11.25 1.4 4.1092 -50.5909 -164.412
44 3.75 11.25 1.4 4.00229 -49.7219 138.636
45 4 11.25 1.4 3.90846 -49.4681 59.9761
46 4.25 11.25 1.4 3.82869 -53.3434 -67.2811
47 4.5 11.25 1.4 3.76386 -56.1984 123.137
48 4.75 11.25 1.4 3.71476 -60.1024 -4.32645
49 5 11.25 1.4 3.68201 -52.4535 69.5158
50 5.25 11.25 1.4 3.66606 -51.8976 117.425
51 5.5 11.25 1.4 3.66712 -51.4705 71.02
52 5.75 11.25 1.4 3.68518 -51.6795 -7.86548
53 6 11.25 1.4 3.71999 -49.3623 163.251
54 6.25 11.25 1.4 3.77109 -50.1815 -6.22304
55 6.5 11.25 1.4 3.83782 -47.5793 156.039
56 6.75 11.25 1.4 3.9194 -46.1721 -85.9319
57 7 11.25 1.4 4.0149 -48.423 -6.76329
58 7.25 11.25 1.4 4.12337 -46.9896 45.2153
59 7.5 11.25 1.4 4.24382 -45.8671 44.797
60 7.75 11.25 1.4 4.37525 -46.9552 25.2701
61 8 11.25 1.4 4.5167 -55.2616 -21.3898
62 8.25 11.25 1.4 4.66726 -52.3111 -136.591
63 8.5 11.25 1.4 4.82609 -51.1237 123.407
64 8.75 11.25 1.4 4.99238 -51.7001 -3.03799
65 9 11.25 1.4 5.16543 -50.25 -165.359
66 9.25 11.25 1.4 5.34457 -50.2074 20.5371
67 9.5 11.25 1.4 5.52922 -50.6414 -154.568
68 9.75 11.25 1.4 5.71883 -50.0461 -6.77529
69 10 11.25 1.4 5.91293 -48.5727 150.882
70 10.25 11.25 1.4 6.1111 -51.8583 -64.8852
71 10.5 11.25 1.4 6.31295 -53.0419 48.775
72 10.75 11.25 1.4 6.51814 -51.3974 161.828
73 11 11.25 1.4 6.72636 -53.2787 -83.0389
74 11.25 11.25 1.4 6.93734 -53.5291 11.3833
75 11.5 11.25 1.4 7.15084 -55.6285 85.5057
76 11.75 11.25 1.4 7.36663 -53.0617 168.345
77 12 11.25 1.4 7.58453 -64.5008 -47.7797
78 12.25 11.25 1.4 7.80435 -58.874 -38.4493
79 12.5 11.25 1.4 8.02593 -70.4837 -103.437
80 12.75 11.25 1.4 8.24914 -52.5719 83.745
81 13 11.25 1.4 8.47385 -52.5939 138.607
82 13.25 11.25 1.4 8.69994 -52.2009 -176.587
83 13.5 11.25 1.4 8.9273 -54.9886 -121.549
84 13.75 11.25 1.4 9.15584 -55.4367 -83.1692
85 14 11.25 1.4 9.38548 -53.6149 -41.4307
86 14.25 11.25 1.4 9.61613 -54.0753 17.7285
87 14.5 11.25 1.4 9.84773 -55.0622 36.1031
88 14.75 11.25 1.4 10.0802 -54.5587 92.3913
89 15 11.25 1.4 10.3135 -56.997 110.813
90 15.25 11.25 1.4 10.5476 -55.6206 134.246
91 15.5 11.25 1.4 10.7823 -60.0856 -157.55
92 15.75 11.25 1.4 11.0178 -51.2039 -146.639
93 16 11.25 1.4 11.2539 -48.6642 -136.335
94 16.25 11.25 1.4 11.4905 -50.4515 -131.075
95 16.5 11.25 1.4 11.7277 -57.0745 -121.802
96 16.75 11.25 1.4 11.9655 -60.0066 -21.5245
97 17 11.25 1.4 12.2037 -55.8773 -59.0506
98 17.25 11.25 1.4 12.4424 -54.8122 -71.2728
99 17.5 11.25 1.4 12.6815 -56.3406 -54.8077
100 17.75 11.25 1.4 12.9211 -61.4406 -67.1424
101 18 11.25 1.4 13.161 -59.7361 -23.6844
102 18.25 11.25 1.4 13.4013 -56.1245 -23.1476
103 18.5 11.25 1.4 13.6419 -57.2691 -2.78739
104 18.75 11.25 1.4 13.8829 -61.4779 40.6417
105 19 11.25 1.4 14.1242 -55.7825 -33.752
106 19.25 11.25 1.4 14.3658 -66.1599 47.7224
107 19.5 11.25 1.4 14.6076 -56.2373 9.73277
108 19.75 11.25 1.4 14.8498 -59.4642 -28.9141
109 20 11.25 1.4 15.0922 -57.1433 61.1508
110 20.25 11.25 1.4 15.3348 -60.0519 -15.6082
111 20.5 11.25 1.4 15.5777 -64.0188 -62.5084
112 20.75 11.25 1.4 15.8208 -58.1008 9.08216
113 21 11.25 1.4 16.0641 -73.6733 93.4497
114 21.25 11.25 1.4 16.3076 -64.1706 28.6378
115 21.5 11.25 1.4 16.5513 -62.4402 -35.0847
116 21.75 11.25 1.4 16.7952 -63.7166 40.8565
117 22 11.25 1.4 17.0393 -61.7121 -27.7023
118 22.25 11.25 1.4 17.2835 -72.2362 -2.69821
119 22.5 11.25 1.4 17.5279 -62.7856 8.61777
120 22.75 11.25 1.4 17.7724 -70.1159 -57.0034
121 23 11.25 1.4 18.0171 -60.8293 -22.8076
122 23.25 11.25 1.4 18.262 -69.8207 51.9796
123 23.5 11.25 1.4 18.507 -61.5277 -59.3016
124 23.75 11.25 1.4 18.7521 -72.6741 -7.11924
125 24 11.25 1.4 18.9973 -59.9494 -51.3242
126 24.25 11.25 1.4 19.2427 -61.446 7.08097
127 -7 11.5 1.4 12.8224 -55.9286 -97.1427
128 -6.75 11.5 1.4 12.5816 -55.3062 -156.854
129 -6.5 11.5 1.4 12.3412 -51.7358 -121.706
130 -6.25 11.5 1.4 12.1011 -53.9572 -110.985
131 -6 11.5 1.4 11.8615 -57.0885 -155.622
132 -5.75 11.5 1.4 11.6223 -57.3421 -148.33
133 -5.5 11.5 1.4 11.3836 -54.3247 174.116
134 -5.25 11.5 1.4 11.1453 -57.1679 126.797
135 -5 11.5 1.4 10.9076 -54.7994 137.553
136 -4.75 11.5 1.4 10.6705 -57.2361 95.064
137 -4.5 11.5 1.4 10.4339 -58.2843 114.027
138 -4.25 11.5 1.4 10.198 -58.815 87.5029
139 -4 11.5 1.4 9.9628 -57.099 47.931
140 -3.75 11.5 1.4 9.72832 -59.6259 47.5215
141 -3.5 11.5 1.4 9.49463 -52.0455 52.9649
142 -3.25 11.5 1.4 9.26179 -62.5682 -44.5283
143 -3 11.5 1.4 9.02987 -57.5615 -37.9677
144 -2.75 11.5 1.4 8.79894 -53.8494 -102.6
145 -2.5 11.5 1.4 8.56908 -54.9247 -135.528
146 -2.25 11.5 1.4 8.34038 -53.3068 178.818
147 -2 11.5 1.4 8.11293 -56.4319 122.663
148 -1.75 11.5 1.4 7.88685 -54.3079 85.2965
149 -1.5 11.5 1.4 7.66226 -53.0941 21.4318
150 -1.25 11.5 1.4 7.43929 -64.7389 92.0696
151 -1 11.5 1.4 7.21809 -63.4264 19.8673
152 -0.75 11.5 1.4 6.99883 -61.4274 -42.2518
153 -0.5 11.5 1.4 6.78169 -58.9619 -97.9984
154 -0.25 11.5 1.4 6.5669 -55.1734 153.516
155 -1.77636e-15 11.5 1.4 6.35468 -61.0322 45.832
156 0.25 11.5 1.4 6.1453 -59.8152 -37.8453
157 0.5 11.5 1.4 5.93906 -59.5628 -109.444
158 0.75 11.5 1.4 5.73631 -56.2014 116.376
159 1 11.5 1.4 5.53742 -53.3829 -59.2535
160 1.25 11.5 1.4 5.34283 -50.3402 140.889
161 1.5 11.5 1.4 5.15302 -55.6843 -23.8002
162 1.75 11.5 1.4 4.96854 -54.4611 174.863
163 2 11.5 1.4 4.79 -53.6855 -29.2577
164 2.25 11.5 1.4 4.61811 -55.1345 103.71
165 2.5 11.5 1.4 4.45362 -54.6294 -108.946
166 2.75 11.5 1.4 4.29738 -50.8333 1.48085
167 3 11.5 1.4 4.15033 -50.7676 71.0176
168 3.25 11.5 1.4 4.01348 -52.4711 132.506
169 3.5 11.5 1.4 3.88791 -51.4133 123.678
170 3.75 11.5 1.4 3.77473 -51.1955 95.6957
171 4 11.5 1.4 3.6751 -50.2422 58.7067
172 4.25 11.5 1.4 3.59015 -49.8 -61.4355
173 4.5 11.5 1.4 3.52093 -52.5956 127.432
174 4.75 11.5 1.4 3.46839 -51.9479 -79.6694
175 5 11.5 1.4 3.43329 -50.4123 35.3902
176 5.25 11.5 1.4 3.41618 -50.1193 92.8571
177 5.5 11.5 1.4 3.41732 -50.5031 87.3186
178 5.75 11.5 1.4 3.43669 -49.5123 -3.08069
179 6 11.5 1.4 3.47399 -46.79 149.963
180 6.25 11.5 1.4 3.52865 -45.5674 -11.6382
181 6.5 11.5 1.4 3.59988 -44.2261 155.502
182 6.75 11.5 1.4 3.68673 -47.326 -91.2582
183 7 11.5 1.4 3.7881 -48.9203 -49.6535
184 7.25 11.5 1.4 3.90288 -48.3814 -28.6487
185 7.5 11.5 1.4 4.02992 -48.4561 -41.7815
186 7.75 11.5 1.4 4.1681 -47.1505 -90.7662
187 8 11.5 1.4 4.31635 -46.2857 -163.639
188 8.25 11.5 1.4 4.47366 -50.0921 91.8429
189 8.5 11.5 1.4 4.63912 -48.2402 -55.0535
190 8.75 11.5 1.4 4.81188 -48.968 154.301
191 9 11.5 1.4 4.99119 -49.3979 -6.68561
192 9.25 11.5 1.4 5.17636 -49.6695 163.942
193 9.5 11.5 1.4 5.3668 -49.8135 -28.1672
194 9.75 11.5 1.4 5.56195 -53.3129 115.736
195 10 11.5 1.4 5.76134 -52.3726 -138.977
196 10.25 11.5 1.4 5.96455 -52.128 0.523062
197 10.5 11.5 1.4 6.17119 -51.8962 107.316
198 10.75 11.5 1.4 6.38094 -52.9766 -174.727
199 11 11.5 1.4 6.5935 -50.4904 -58.6984
200 11.25 11.5 1.4 6.8086 -52.1417 27.3985
201 11.5 11.5 1.4 7.02601 -53.3883 116.746
202 11.75 11.5 1.4 7.24552 -54.0496 135.286
203 12 11.5 1.4 7.46695 -52.5947 -97.6374
204 12.25 11.5 1.4 7.69013 -53.7221 -80.3095
205 12.5 11.5 1.4 7.91491 -68.0515 -78.2848
206 12.75 11.5 1.4 8.14117 -53.2861 -9.4216
207 13 11.5 1.4 8.36878 -50.3147 61.4486
208 13.25 11.5 1.4 8.59763 -49.8189 115.292
209 13.5 11.5 1.4 8.82763 -53.5781 -177.686
210 13.75 11.5 1.4 9.05868 -55.4063 -133.005
211 14 11.5 1.4 9.29072 -57.5854 -101.263
212 14.25 11.5 1.4 9.52367 -56.2921 -68.4102
213 14.5 11.5 1.4 9.75746 -60.9052 -42.6795
214 14.75 11.5 1.4 9.99204 -57.3341 -24.4326
215 15 11.5 1.4 10.2273 -60.797 -1.31867
216 15.25 11.5 1.4 10.4633 -59.8401 3.15006
217 15.5 11.5 1.4 10.7 -63.5399 1.61227
218 15.75 11.5 1.4 10.9372 -58.5026 58.5371
219 16 11.5 1.4 11.175 -53.7999 64.9754
220 16.25 11.5 1.4 11.4133 -52.4323 57.377
221 16.5 11.5 1.4 11.6521 -51.7781 55.9883
222 16.75 11.5 1.4 11.8913 -54.5671 87.3313
223 17 11.5 1.4 12.131 -56.018 150.486
224 17.25 11.5 1.4 12.3711 -56.2984 143.04
225 17.5 11.5 1.4 12.6116 -53.9538 158.478
226 17.75 11.5 1.4 12.8524 -72.4794 -130.151
227 18 11.5 1.4 13.0936 -59.4037 179.088
228 18.25 11.5 1.4 13.3351 -59.3094 -163.526
229 18.5 11.5 1.4 13.5769 -73.2271 138.655
230 18.75 11.5 1.4 13.819 -57.0474 -173.472
231 19 11.5 1.4 14.0614 -57.2737 144.99
232 19.25 11.5 1.4 14.3041 -70.2706 -17.3455
233 19.5 11.5 1.4 14.5469 -59.3109 -159.754
234 19.75 11.5 1.4 14.7901 -59.0345 117.399
235 20 11.5 1.4 15.0334 -66.4258 -136.539
236 20.25 11.5 1.4 15.277 -55.4567 164.77
237 20.5 11.5 1.4 15.5208 -59.8784 -128.556
238 20.75 11.5 1.4 15.7648 -63.7562 -173.964
239 21 11.5 1.4 16.0089 -63.0286 122.434
240 21.25 11.5 1.4 16.2533 -61.9016 -168.889
241 21.5 11.5 1.4 16.4978 -65.3826 157.838
242 21.75 11.5 1.4 16.7424 -65.0857 -148.457
243 22 11.5 1.4 16.9872 -59.7631 152.26
244 22.25 11.5 1.4 17.2322 -64.9715 126.209
245 22.5 11.5 1.4 17.4773 -57.7209 147.684
246 22.75 11.5 1.4 17.7226 -70.8688 126.109
247 23 11.5 1.4 17.968 -59.5994 106.798
248 23.25 11.5 1.4 18.2135 -62.9261 144.578
249 23.5 11.5 1.4 18.4591 -59.2177 103.111
250 23.75 11.5 1.4 18.7048 -63.7236 168.834
251 24 11.5 1.4 18.9507 -60.5841 88.2725
252 24.25 11.5 1.4 19.1967 -59.0385 111.171
253 -7 11.75 1.4 12.7581 -56.0164 55.5623
254 -6.75 11.75 1.4 12.5161 -52.0226 49.1132
255 -6.5 11.75 1.4 12.2744 -51.215 69.5513
256 -6.25 11.75 1.4 12.033 -59.3579 71.0738
257 -6 11.75 1.4 11.792 -56.3993 0.0581034
258 -5.75 11.75 1.4 11.5513 -56.1961 6.72388
259 -5.5 11.75 1.4 11.3111 -58.1091 14.2726
260 -5.25 11.75 1.4 11.0713 -65.7587 31.7814
261 -5 11.75 1.4 10.832 -56.0094 11.1709
262 -4.75 11.75 1.4 10.5931 -58.7827 11.6394
263 -4.5 11.75 1.4 10.3548 -54.3592 -13.1279
264 -4.25 11.75 1.4 10.1171 -54.1388 -22.6262
265 -4 11.75 1.4 9.87991 -52.7958 -80.8282
266 -3.75 11.75 1.4 9.64342 -52.1475 -66.4339
267 -3.5 11.75 1.4 9.40762 -53.7006 -93.338
268 -3.25 11.75 1.4 9.17257 -58.3602 -127.485
269 -3 11.75 1.4 8.93834 -56.0273 -146.844
270 -2.75 11.75 1.4 8.70498 -55.3864 160.264
271 -2.5 11.75 1.4 8.47257 -55.4332 141.454
272 -2.25 11.75 1.4 8.24119 -55.6866 92.849
273 -2 11.75 1.4 8.01093 -55.8008 65.1932
274 -1.75 11.75 1.4 7.78189 -51.9521 29.5203
275 -1.5 11.75 1.4 7.55417 -52.8431 -6.53079
276 -1.25 11.75 1.4 7.32791 -51.1968 -84.1557
277 -1 11.75 1.4 7.10324 -56.2543 -140.268
278 -0.75 11.75 1.4 6.88032 -58.815 -50.149
279 -0.5 11.75 1.4 6.65933 -57.5848 -125.711
280 -0.25 11.75 1.4 6.44045 -59.3877 153.071
281 -1.77636e-15 11.75 1.4 6.22392 -59.9873 98.1202
282 0.25 11.75 1.4 6.00999 -51.0418 1.49615
283 0.5 11.75 1.4 5.79894 -51.9159 -136.584
284 0.75 11.75 1.4 5.59111 -64.6156 44.1558
285 1 11.75 1.4 5.38686 -52.2869 80.6808
286 1.25 11.75 1.4 5.18663 -56.5301 -96.2617
287 1.5 11.75 1.4 4.99088 -54.3298 130.705
288 1.75 11.75 1.4 4.80017 -53.2402 -40.217
289 2 11.75 1.4 4.61513 -57.394 159.01
290 2.25 11.75 1.4 4.43646 -51.2642 -19.2369
291 2.5 11.75 1.4 4.26497 -49.676 112.033
292 2.75 11.75 1.4 4.10156 -51.9492 -134.062
293 3 11.75 1.4 3.94722 -50.8616 -42.1417
294 3.25 11.75 1.4 3.80307 -53.0329 -6.45856
295 3.5 11.75 1.4 3.6703 -51.0423 67.9421
296 3.75 11.75 1.4 3.55019 -47.1839 55.4841
297 4 11.75 1.4 3.44408 -49.4221 -12.7372
298 4.25 11.75 1.4 3.35327 -52.0016 -108.901
299 4.5 11.75 1.4 3.27906 -61.7846 132.024
300 4.75 11.75 1.4 3.22258 -51.7377 -32.4631
301 5 11.75 1.4 3.18477 -47.6634 67.3494
302 5.25 11.75 1.4 3.16632 -46.5583 115.809
303 5.5 11.75 1.4 3.16754 -46.4267 112.21
304 5.75 11.75 1.4 3.18844 -45.377 -75.1839
305 6 11.75 1.4 3.22861 -47.9297 171.092
306 6.25 11.75 1.4 3.28735 -48.1579 -15.6984
307 6.5 11.75 1.4 3.3637 -45.7802 124.182
308 6.75 11.75 1.4 3.45648 -46.5414 -157.482
309 7 11.75 1.4 3.56441 -45.9997 -100.324
310 7.25 11.75 1.4 3.68616 -48.5104 -97.6663
311 7.5 11.75 1.4 3.82042 -48.5815 -152.665
312 7.75 11.75 1.4 3.9659 -48.2284 148.858
313 8 11.75 1.4 4.12142 -50.2311 40.4138
314 8.25 11.75 1.4 4.2859 -47.0266 -79.1418
315 8.5 11.75 1.4 4.45833 -50.791 159.562
316 8.75 11.75 1.4 4.63783 -52.0358 -53.1358
317 9 11.75 1.4 4.82361 -48.2732 116.206
318 9.25 11.75 1.4 5.01498 -49.0484 -68.7606
319 9.5 11.75 1.4 5.21132 -50.7206 74.2656
320 9.75 11.75 1.4 5.41208 -51.5047 -163.085
321 10 11.75 1.4 5.61679 -52.4235 -62.2585
322 10.25 11.75 1.4 5.82504 -48.6211 51.1132
323 10.5 11.75 1.4 6.03647 -52.3587 168.125
324 10.75 11.75 1.4 6.25074 -55.929 -107.624
325 11 11.75 1.4 6.46757 -52.3832 -72.2495
326 11.25 11.75 1.4 6.68672 -53.1456 21.8329
327 11.5 11.75 1.4 6.90797 -49.8376 107.301
328 11.75 11.75 1.4 7.13112 -56.811 135.895
329 12 11.75 1.4 7.35599 -50.9918 -138.031
330 12.25 11.75 1.4 7.58244 -54.5816 -103.371
331 12.5 11.75 1.4 7.81032 -54.6831 -62.3777
332 12.75 11.75 1.4 8.03952 -52.0589 -60.4561
333 13 11.75 1.4 8.26993 -48.4687 9.72143
334 13.25 11.75 1.4 8.50144 -49.7001 70.7922
335 13.5 11.75 1.4 8.73397 -51.9516 129.713
336 13.75 11.75 1.4 8.96744 -59.7054 149.834
337 14 11.75 1.4 9.20178 -57.2427 133.379
338 14.25 11.75 1.4 9.43693 -55.2421 160.879
339 14.5 11.75 1.4 9.67282 -55.8461 -153.968
340 14.75 11.75 1.4 9.9094 -53.285 -142.564
341 15 11.75 1.4 10.1466 -53.7698 -119.048
342 15.25 11.75 1.4 10.3844 -57.77 -126.317
343 15.5 11.75 1.4 10.6228 -69.6387 -110.214
344 15.75 11.75 1.4 10.8617 -57.8355 -42.9529
345 16 11.75 1.4 11.1011 -55.5316 -53.6619
346 16.25 11.75 1.4 11.341 -56.0448 -60.5861
347 16.5 11.75 1.4 11.5813 -55.4431 -77.5503
348 16.75 11.75 1.4 11.8219 -59.7024 -85.8655
349 17 11.75 1.4 12.063 -65.9079 -69.9954
350 17.25 11.75 1.4 12.3044 -55.7542 -77.6093
351 17.5 11.75 1.4 12.5462 -53.1758 -57.8121
352 17.75 11.75 1.4 12.7883 -55.8882 -32.4939
353 18 11.75 1.4 13.0306 -59.2564 -19.0497
354 18.25 11.75 1.4 13.2733 -54.6862 -16.5812
355 18.5 11.75 1.4 13.5162 -72.6198 12.0972
356 18.75 11.75 1.4 13.7594 -57.4948 46.8049
357 19 11.75 1.4 14.0028 -69.2922 -47.7848
358 19.25 11.75 1.4 14.2464 -69.9256 -140.794
359 19.5 11.75 1.4 14.4903 -56.5142 29.7789
360 19.75 11.75 1.4 14.7344 -61.6018 -66.9862
361 20 11.75 1.4 14.9786 -64.3939 89.8907
362 20.25 11.75 1.4 15.2231 -62.0375 -78.0602
363 20.5 11.75 1.4 15.4677 -71.9265 -127.434
364 20.75 11.75 1.4 15.7125 -60.0718 -39.7822
365 21 11.75 1.4 15.9575 -68.528 7.4904
366 21.25 11.75 1.4 16.2026 -70.3366 6.25495
367 21.5 11.75 1.4 16.4478 -59.4781 -100.502
368 21.75 11.75 1.4 16.6932 -66.5121 -65.5605
369 22 11.75 1.4 16.9388 -64.0349 -44.4268
370 22.25 11.75 1.4 17.1844 -68.6714 -157.587
371 22.5 11.75 1.4 17.4302 -58.4943 -73.4734
372 22.75 11.75 1.4 17.6761 -64.219 -40.8221
373 23 11.75 1.4 17.9221 -61.8484 -101.151
374 23.25 11.75 1.4 18.1683 -61.8172 -57.4392
375 23.5 11.75 1.4 18.4145 -59.5874 -138.302
376 23.75 11.75 1.4 18.6608 -60.0494 -73.8476
377 24 11.75 1.4 18.9072 -65.2658 -139.112
378 24.25 11.75 1.4 19.1538 -60.2963 -136.63
379 -7 12 1.4 12.6984 -55.2006 -144.721
380 -6.75 12 1.4 12.4552 -54.6471 -124.265
381 -6.5 12 1.4 12.2123 -56.0802 -91.5354
382 -6.25 12 1.4 11.9697 -65.3801 -6.22429
383 -6 12 1.4 11.7274 -59.6136 -143.834
384 -5.75 12 1.4 11.4854 -55.54 -128.41
385 -5.5 12 1.4 11.2437 -53.4291 -129.34
386 -5.25 12 1.4 11.0025 -54.8022 -134.269
387 -5 12 1.4 10.7616 -52.6952 -162.945
388 -4.75 12 1.4 10.5212 -55.8869 -149.317
389 -4.5 12 1.4 10.2812 -75.5842 -169.115
390 -4.25 12 1.4 10.0417 -56.4722 179.455
391 -4 12 1.4 9.8027 -58.9081 149.621
392 -3.75 12 1.4 9.5643 -56.4751 -175.495
393 -3.5 12 1.4 9.3265 -53.9938 136.651
394 -3.25 12 1.4 9.08935 -54.9774 139.672
395 -3 12 1.4 8.85292 -53.3855 99.7911
396 -2.75 12 1.4 8.61724 -52.908 68.6981
397 -2.5 12 1.4 8.3824 -54.3599 52.3676
398 -2.25 12 1.4 8.14846 -56.521 -4.28701
399 -2 12 1.4 7.91551 -55.5602 -9.24966
400 -1.75 12 1.4 7.68362 -53.6038 -42.8932
401 -1.5 12 1.4 7.45291 -52.6575 -79.6382
402 -1.25 12 1.4 7.22347 -51.9847 -140.862
403 -1 12 1.4 6.99545 -53.2569 -170.781
404 -0.75 12 1.4 6.76898 -53.1488 145.732
405 -0.5 12 1.4 6.54423 -50.6069 83.5165
406 -0.25 12 1.4 6.32137 -57.3393 161.981
407 -1.77636e-15 12 1.4 6.10061 -52.4667 69.3433
408 0.25 12 1.4 5.8822 -56.7067 -28.8149
409 0.5 12 1.4 5.6664 -57.8077 -50.498
410 0.75 12 1.4 5.45351 -51.8474 -174.753
411 1 12 1.4 5.24391 -52.0125 76.3121
412 1.25 12 1.4 5.03799 -55.9285 -2.70367
413 1.5 12 1.4 4.83623 -51.6258 -144.471
414 1.75 12 1.4 4.63917 -52.9559 50.8065
415 2 12 1.4 4.44744 -53.1462 -66.1989
416 2.25 12 1.4 4.26175 -50.2253 96.6993
417 2.5 12 1.4 4.08292 -54.0464 -111.257
418 2.75 12 1.4 3.91191 -50.7888 52.2003
419 3 12 1.4 3.74978 -52.2706 178.745
420 3.25 12 1.4 3.59772 -47.351 -80.3393
421 3.5 12 1.4 3.45708 -48.1441 -41.0957
422 3.75 12 1.4 3.32929 -51.4131 -14.5282
423 4 12 1.4 3.21589 -50.9762 -51.1425
424 4.25 12 1.4 3.11845 -48.8493 -121.595
425 4.5 12 1.4 3.0385 -54.3782 126.084
426 4.75 12 1.4 2.97746 -48.6959 -40.0497
427 5 12 1.4 2.93651 -45.6272 65.7619
428 5.25 12 1.4 2.91648 -45.1066 119.844
429 5.5 12 1.4 2.91781 -44.2265 111.915
430 5.75 12 1.4 2.94048 -43.4781 -73.7047
431 6 12 1.4 2.98399 -45.7728 167.881
432 6.25 12 1.4 3.04745 -45.0194 -20.0543
433 6.5 12 1.4 3.12966 -44.8301 113.497
434 6.75 12 1.4 3.22917 -46.8636 163.164
435 7 12 1.4 3.34444 -48.8967 170.435
436 7.25 12 1.4 3.47391 -45.6907 151.385
437 7.5 12 1.4 3.61606 -46.7694 111.175
438 7.75 12 1.4 3.76944 -48.9638 -0.268855
439 8 12 1.4 3.93274 -46.477 -114.223
440 8.25 12 1.4 4.10478 -49.4455 88.4861
441 8.5 12 1.4 4.2845 -45.7793 -78.342
442 8.75 12 1.4 4.47099 -51.0241 117.157
443 9 12 1.4 4.66343 -49.2659 -130.58
444 9.25 12 1.4 4.8611 -48.1474 18.2291
445 9.5 12 1.4 5.06341 -51.6375 143.411
446 9.75 12 1.4 5.26981 -47.9527 -106.008
447 10 12 1.4 5.47984 -50.7033 7.53535
448 10.25 12 1.4 5.6931 -52.9646 68.8925
449 10.5 12 1.4 5.90925 -49.9071 164.909
450 10.75 12 1.4 6.12797 -51.301 -108.637
451 11 12 1.4 6.349 -52.0433 -65.7201
452 11.25 12 1.4 6.5721 -51.9124 -7.99541
453 11.5 12 1.4 6.79708 -50.2069 64.4943
454 11.75 12 1.4 7.02375 -52.8657 115.391
455 12 12 1.4 7.25196 -55.0885 154.531
456 12.25 12 1.4 7.48156 -53.2695 -168.192
457 12.5 12 1.4 7.71242 -53.3712 -143.186
458 12.75 12 1.4 7.94445 -53.087 -85.6893
459 13 12 1.4 8.17753 -54.0625 -62.4305
460 13.25 12 1.4 8.41159 -52.7945 12.978
461 13.5 12 1.4 8.64654 -70.6144 -68.8899
462 13.75 12 1.4 8.88231 -58.0588 -35.4143
463 14 12 1.4 9.11883 -51.4841 7.70747
464 14.25 12 1.4 9.35606 -53.6956 45.2909
465 14.5 12 1.4 9.59394 -56.4911 93.3084
466 14.75 12 1.4 9.83242 -59.7427 95.8816
467 15 12 1.4 10.0715 -57.7742 87.8403
468 15.25 12 1.4 10.311 -55.8311 96.7359
469 15.5 12 1.4 10.5511 -54.1354 66.5682
470 15.75 12 1.4 10.7916 -66.5917 138.107
471 16 12 1.4 11.0325 -65.9253 -108.197
472 16.25 12 1.4 11.2738 -54.7336 125.801
473 16.5 12 1.4 11.5155 -53.1135 130.739
474 16.75 12 1.4 11.7575 -58.9892 96.7403
475 17 12 1.4 11.9999 -57.6037 108.502
476 17.25 12 1.4 12.2425 -60.0948 103.214
477 17.5 12 1.4 12.4855 -67.6495 106.469
478 17.75 12 1.4 12.7287 -58.1006 99.5354
479 18 12 1.4 12.9722 -59.0372 113.927
480 18.25 12 1.4 13.2159 -54.9627 168.339
481 18.5 12 1.4 13.4599 -56.203 113.917
482 18.75 12 1.4 13.704 -56.4082 -164.271
483 19 12 1.4 13.9484 -56.6996 166.972
484 19.25 12 1.4 14.193 -67.0869 -147.081
485 19.5 12 1.4 14.4378 -60.9129 -143.277
486 19.75 12 1.4 14.6827 -57.8276 105.774
487 20 12 1.4 14.9278 -59.9045 165.779
488 20.25 12 1.4 15.1731 -59.7318 98.9224
489 20.5 12 1.4 15.4185 -71.058 169.728
490 20.75 12 1.4 15.6641 -60.1751 113.623
491 21 12 1.4 15.9098 -61.5827 55.6759
492 21.25 12 1.4 16.1556 -58.4222 109.38
493 21.5 12 1.4 16.4016 -62.0168 131.117
494 21.75 12 1.4 16.6477 -60.306 -11.4875
495 22 12 1.4 16.8938 -59.7648 62.6031
496 22.25 12 1.4 17.1402 -62.4544 19.3901
497 22.5 12 1.4 17.3866 -59.2027 -4.38243
498 22.75 12 1.4 17.6331 -64.3783 -1.57547
499 23 12 1.4 17.8797 -55.814 -10.5607
500 23.25 12 1.4 18.1264 -65.3947 41.3649
501 23.5 12 1.4 18.3732 -58.3726 -25.4113
502 23.75 12 1.4 18.6201 -60.5328 5.49276
503 24 12 1.4 18.867 -62.3107 -33.9191
504 24.25 12 1.4 19.1141 -57.5254 -27.1748
505 -7 12.25 1.4 12.6434 -55.686 49.6285
506 -6.75 12.25 1.4 12.3991 -57.7094 82.3178
507 -6.5 12.25 1.4 12.1551 -59.8673 102.961
508 -6.25 12.25 1.4 11.9113 -61.3622 29.9133
509 -6 12.25 1.4 11.6677 -52.4408 51.765
510 -5.75 12.25 1.4 11.4245 -53.0986 49.89
511 -5.5 12.25 1.4 11.1815 -57.5608 46.4049
512 -5.25 12.25 1.4 10.9389 -64.406 61.6483
513 -5 12.25 1.4 10.6966 -60.238 100.585
514 -4.75 12.25 1.4 10.4547 -62.4198 61.3401
515 -4.5 12.25 1.4 10.2131 -62.7344 64.522
516 -4.25 12.25 1.4 9.97199 -53.9737 44.5805
517 -4 12.25 1.4 9.7313 -54.6812 6.96207
518 -3.75 12.25 1.4 9.49111 -53.1451 12.8798
519 -3.5 12.25 1.4 9.25142 -53.6989 -6.49825
520 -3.25 12.25 1.4 9.0123 -57.7496 -12.3497
521 -3 12.25 1.4 8.77379 -53.3728 -26.823
522 -2.75 12.25 1.4 8.53594 -52.6938 -33.9845
523 -2.5 12.25 1.4 8.29879 -51.5636 -69.8704
524 -2.25 12.25 1.4 8.06243 -54.2451 -99.4504
525 -2 12.25 1.4 7.82691 -53.5278 -97.6281
526 -1.75 12.25 1.4 7.59232 -54.0937 -119.492
527 -1.5 12.25 1.4 7.35874 -51.5223 -168.238
528 -1.25 12.25 1.4 7.12628 -54.3766 158.709
529 -1 12.25 1.4 6.89505 -53.1404 124.699
530 -0.75 12.25 1.4 6.66517 -52.05 94.101
531 -0.5 12.25 1.4 6.43679 -55.4309 2.37561
532 -0.25 12.25 1.4 6.21007 -52.7234 21.916
533 -1.77636e-15 12.25 1.4 5.98521 -49.5143 -64.7313
534 0.25 12.25 1.4 5.76243 -54.725 28.3724
535 0.5 12.25 1.4 5.54196 -51.4688 -108.396
536 0.75 12.25 1.4 5.32411 -56.5929 -170.538
537 1 12.25 1.4 5.1092 -55.64 125.964
538 1.25 12.25 1.4 4.89762 -50.6292 23.8106
539 1.5 12.25 1.4 4.68982 -56.5578 -89.8475
540 1.75 12.25 1.4 4.48634 -51.8197 150.424
541 2 12.25 1.4 4.28777 -58.882 27.3518
542 2.25 12.25 1.4 4.09485 -53.2541 -109.926
543 2.5 12.25 1.4 3.9084 -53.6511 89.7168
544 2.75 12.25 1.4 3.72939 -50.9332 -102.826
545 3 12.25 1.4 3.55895 -50.2827 31.4586
546 3.25 12.25 1.4 3.39837 -50.1875 138.718
547 3.5 12.25 1.4 3.2491 -53.9482 -145.277
548 3.75 12.25 1.4 3.11279 -49.1099 -89.059
549 4 12.25 1.4 2.99119 -46.1685 -117.335
550 4.25 12.25 1.4 2.88618 -48.1321 -168.649
551 4.5 12.25 1.4 2.79961 -55.0553 102.263
552 4.75 12.25 1.4 2.73324 -47.7085 -40.3956
553 5 12.25 1.4 2.68856 -45.2447 79.0072
554 5.25 12.25 1.4 2.66667 -44.7417 138.278
555 5.5 12.25 1.4 2.66813 -43.7705 127.39
556 5.75 12.25 1.4 2.6929 -43.7196 -47.8908
557 6 12.25 1.4 2.74034 -47.2323 -179.629
558 6.25 12.25 1.4 2.80932 -46.8952 -42.8434
559 6.5 12.25 1.4 2.89828 -46.435 63.0944
560 6.75 12.25 1.4 3.00546 -43.6778 102.671
561 7 12.25 1.4 3.12899 -45.0891 94.1791
562 7.25 12.25 1.4 3.26701 -47.6097 54.3491
563 7.5 12.25 1.4 3.41777 -46.2657 -48.0621
564 7.75 12.25 1.4 3.57965 -45.9416 -145.342
565 8 12.25 1.4 3.75123 -49.6712 53.456
566 8.25 12.25 1.4 3.93122 -47.6203 -117.263
567 8.5 12.25 1.4 4.11853 -48.5685 48.2859
568 8.75 12.25 1.4 4.3122 -48.8151 -152.926
569 9 12.25 1.4 4.51141 -50.5515 -30.2763
570 9.25 12.25 1.4 4.71546 -50.7754 87.8207
571 9.5 12.25 1.4 4.92376 -48.1883 -166.238
572 9.75 12.25 1.4 5.13577 -49.3214 -75.2806
573 10 12.25 1.4 5.35107 -50.814 15.7603
574 10.25 12.25 1.4 5.56927 -51.2617 101.12
575 10.5 12.25 1.4 5.79003 -49.8101 144.961
576 10.75 12.25 1.4 6.01309 -53.3956 -141.799
577 11 12.25 1.4 6.23819 -50.2899 -95.5124
578 11.25 12.25 1.4 6.46513 -51.6799 -57.5221
579 11.5 12.25 1.4 6.6937 -52.4996 7.786
580 11.75 12.25 1.4 6.92376 -50.5194 48.2937
581 12 12.25 1.4 7.15515 -55.802 75.4001
582 12.25 12.25 1.4 7.38776 -51.8065 107.74
583 12.5 12.25 1.4 7.62147 -53.79 133.386
584 12.75 12.25 1.4 7.85618 -54.4732 -175.565
585 13 12.25 1.4 8.0918 -60.259 158.941
586 13.25 12.25 1.4 8.32827 -56.8124 -162.347
587 13.5 12.25 1.4 8.5655 -53.1887 -166.175
588 13.75 12.25 1.4 8.80344 -50.1584 -112.819
589 14 12.25 1.4 9.04204 -51.2342 -68.2296
590 14.25 12.25 1.4 9.28123 -58.7771 -50.288
591 14.5 12.25 1.4 9.52098 -61.5339 -73.9631
592 14.75 12.25 1.4 9.76124 -55.2813 -62.8775
593 15 12.25 1.4 10.002 -52.7106 -66.9702
594 15.25 12.25 1.4 10.2432 -57.2098 -35.8788
595 15.5 12.25 1.4 10.4848 -54.3463 -74.8211
596 15.75 12.25 1.4 10.7267 -60.6089 -112.855
597 16 12.25 1.4 10.9691 -64.8279 -105.063
598 16.25 12.25 1.4 11.2118 -60.4291 -64.5946
599 16.5 12.25 1.4 11.4547 -55.5696 -59.1599
600 16.75 12.25 1.4 11.698 -58.1862 -31.5727
601 17 12.25 1.4 11.9416 -58.6768 -43.9974
602 17.25 12.25 1.4 12.1854 -63.8052 -57.3527
603 17.5 12.25 1.4 12.4295 -65.5315 -53.4756
604 17.75 12.25 1.4 12.6738 -58.7237 -87.8852
605 18 12.25 1.4 12.9183 -61.3479 -63.0818
606 18.25 12.25 1.4 13.163 -59.1096 -66.8503
607 18.5 12.25 1.4 13.408 -53.8806 -106.565
608 18.75 12.25 1.4 13.6531 -58.7536 -82.8838
609 19 12.25 1.4 13.8983 -52.258 -68.5143
610 19.25 12.25 1.4 14.1438 -58.4529 -115.495
611 19.5 12.25 1.4 14.3894 -58.3531 -45.0989
612 19.75 12.25 1.4 14.6351 -63.7553 -78.2483
613 20 12.25 1.4 14.881 -76.9083 -133.953
614 20.25 12.25 1.4 15.1271 -60.1537 -117.568
615 20.5 12.25 1.4 15.3732 -79.0236 136.543
616 20.75 12.25 1.4 15.6195 -60.0472 -92.3239
617 21 12.25 1.4 15.8659 -63.8642 -149.11
618 21.25 12.25 1.4 16.1124 -61.2875 159.913
619 21.5 12.25 1.4 16.359 -59.2198 -149.931
620 21.75 12.25 1.4 16.6057 -63.2497 -159.733
621 22 12.25 1.4 16.8525 -78.7559 145.573
622 22.25 12.25 1.4 17.0994 -68.2687 142.936
623 22.5 12.25 1.4 17.3464 -54.016 120.61
624 22.75 12.25 1.4 17.5935 -67.4626 179.487
625 23 12.25 1.4 17.8406 -60.1729 66.5763
626 23.25 12.25 1.4 18.0879 -74.4419 131.57
627 23.5 12.25 1.4 18.3352 -71.2277 112.824
628 23.75 12.25 1.4 18.5826 -69.6407 -172.595
629 24 12.25 1.4 18.83 -67.7517 -69.9119
630 24.25 12.25 1.4 19.0775 -72.6605 80.0529
631 -7 12.5 1.4 12.5931 -56.066 -139.893
632 -6.75 12.5 1.4 12.3478 -59.4624 -141.395
633 -6.5 12.5 1.4 12.1027 -75.3824 65.8089
634 -6.25 12.5 1.4 11.8578 -52.1746 -173.456
635 -6 12.5 1.4 11.6132 -52.9731 -149.371
636 -5.75 12.5 1.4 11.3688 -61.5489 -138.331
637 -5.5 12.5 1.4 11.1246 -58.3834 -75.3134
638 -5.25 12.5 1.4 10.8807 -68.1921 -154.507
639 -5 12.5 1.4 10.6371 -56.9376 -119.241
640 -4.75 12.5 1.4 10.3938 -55.0561 -131.165
641 -4.5 12.5 1.4 10.1508 -58.123 177.978
642 -4.25 12.5 1.4 9.90812 -54.7521 -160.182
643 -4 12.5 1.4 9.66585 -60.2823 -178.661
644 -3.75 12.5 1.4 9.42398 -53.8729 -149.275
645 -3.5 12.5 1.4 9.18255 -58.8064 -157.094
646 -3.25 12.5 1.4 8.94158 -54.0666 -159.702
647 -3 12.5 1.4 8.70113 -54.5779 169.805
648 -2.75 12.5 1.4 8.46123 -55.0277 170.298
649 -2.5 12.5 1.4 8.22194 -53.081 158.072
650 -2.25 12.5 1.4 7.9833 -55.0609 144.713
651 -2 12.5 1.4 7.74537 -53.287 116.998
652 -1.75 12.5 1.4 7.50824 -53.6315 117.692
653 -1.5 12.5 1.4 7.27196 -50.7899 82.07
654 -1.25 12.5 1.4 7.03663 -54.5828 65.5539
655 -1 12.5 1.4 6.80235 -53.7192 50.5527
656 -0.75 12.5 1.4 6.56922 -49.7755 -9.64663
657 -0.5 12.5 1.4 6.33739 -58.506 -20.1478
658 -0.25 12.5 1.4 6.10699 -49.5816 -60.4165
659 -1.77636e-15 12.5 1.4 5.87818 -52.8751 -120.327
660 0.25 12.5 1.4 5.65118 -51.9668 -139.186
661 0.5 12.5 1.4 5.4262 -49.7257 158.694
662 0.75 12.5 1.4 5.2035 -56.5289 -153.12
663 1 12.5 1.4 4.98339 -54.7086 128.986
664 1.25 12.5 1.4 4.76623 -53.8076 44.5184
665 1.5 12.5 1.4 4.55244 -56.3227 -45.0366
666 1.75 12.5 1.4 4.34252 -54.9248 -150.522
667 2 12.5 1.4 4.13706 -53.695 148.316
668 2.25 12.5 1.4 3.93676 -51.851 -20.9092
669 2.5 12.5 1.4 3.74244 -49.9179 -150.039
670 2.75 12.5 1.4 3.55508 -51.2255 13.0714
671 3 12.5 1.4 3.37586 -48.9758 -163.571
672 3.25 12.5 1.4 3.20612 -50.966 -14.8571
673 3.5 12.5 1.4 3.04745 -46.3976 86.3862
674 3.75 12.5 1.4 2.90168 -49.1699 153.741
675 4 12.5 1.4 2.77083 -46.3148 -163.845
676 4.25 12.5 1.4 2.65712 -46.0236 168.738
677 4.5 12.5 1.4 2.56283 -49.6953 71.5579
678 4.75 12.5 1.4 2.49015 -46.6526 -59.6767
679 5 12.5 1.4 2.44103 -45.5166 78.7753
680 5.25 12.5 1.4 2.4169 -45.8689 148.19
681 5.5 12.5 1.4 2.41851 -45.2547 127.159
682 5.75 12.5 1.4 2.44581 -43.9195 -45.9526
683 6 12.5 1.4 2.49795 -45.6222 156.639
684 6.25 12.5 1.4 2.57343 -43.5551 -69.2158
685 6.5 12.5 1.4 2.67027 -45.0836 22.0235
686 6.75 12.5 1.4 2.78623 -45.489 43.158
687 7 12.5 1.4 2.91905 -43.7896 1.05033
688 7.25 12.5 1.4 3.06654 -44.7904 -73.6844
689 7.5 12.5 1.4 3.22668 -46.4921 178.619
690 7.75 12.5 1.4 3.39768 -46.2317 23.5096
691 8 12.5 1.4 3.57799 -46.0065 -142.082
692 8.25 12.5 1.4 3.76627 -50.1721 21.4972
693 8.5 12.5 1.4 3.96138 -46.6049 155.617
694 8.75 12.5 1.4 4.16237 -49.2621 -68.6255
695 9 12.5 1.4 4.36842 -46.7905 39.2815
696 9.25 12.5 1.4 4.57885 -52.6226 124.826
697 9.5 12.5 1.4 4.79309 -48.2438 -145.605
698 9.75 12.5 1.4 5.01063 -49.0951 -67.4756
699 10 12.5 1.4 5.23108 -48.4585 8.56029
700 10.25 12.5 1.4 5.45408 -52.3603 86.7899
701 10.5 12.5 1.4 5.67933 -52.6464 108.98
702 10.75 12.5 1.4 5.90657 -51.8461 172.953
703 11 12.5 1.4 6.13558 -49.8255 -152.357
704 11.25 12.5 1.4 6.36617 -53.6369 -115.785
705 11.5 12.5 1.4 6.59817 -51.4909 -81.9354
706 11.75 12.5 1.4 6.83145 -51.5474 -33.4196
707 12 12.5 1.4 7.06587 -54.4482 -4.43167
708 12.25 12.5 1.4 7.30132 -53.4417 -11.5756
709 12.5 12.5 1.4 7.53771 -52.9679 38.7946
710 12.75 12.5 1.4 7.77495 -53.4317 50.2884
711 13 12.5 1.4 8.01296 -54.4521 35.5398
712 13.25 12.5 1.4 8.25169 -51.2333 58.7743
713 13.5 12.5 1.4 8.49106 -56.1949 90.4751
714 13.75 12.5 1.4 8.73103 -56.5817 101.022
715 14 12.5 1.4 8.97155 -63.2824 103.516
716 14.25 12.5 1.4 9.21257 -54.2255 57.3956
717 14.5 12.5 1.4 9.45406 -51.7704 98.7115
718 14.75 12.5 1.4 9.69598 -57.1955 -170.834
719 15 12.5 1.4 9.9383 -59.8053 -170.973
720 15.25 12.5 1.4 10.181 -57.6089 137.467
721 15.5 12.5 1.4 10.424 -54.849 119.955
722 15.75 12.5 1.4 10.6674 -56.3743 116.787
723 16 12.5 1.4 10.911 -60.6326 114.41
724 16.25 12.5 1.4 11.155 -66.6226 100.789
725 16.5 12.5 1.4 11.3992 -60.7053 82.0432
726 16.75 12.5 1.4 11.6436 -60.3125 103.375
727 17 12.5 1.4 11.8883 -54.5149 112.213
728 17.25 12.5 1.4 12.1332 -55.4915 102.682
729 17.5 12.5 1.4 12.3783 -57.9325 101.57
730 17.75 12.5 1.4 12.6236 -57.0233 92.0135
731 18 12.5 1.4 12.8691 -62.3474 54.3097
732 18.25 12.5 1.4 13.1147 -60.0246 89.0469
733 18.5 12.5 1.4 13.3605 -56.5302 58.5921
734 18.75 12.5 1.4 13.6065 -57.7151 -8.2979
735 19 12.5 1.4 13.8526 -55.6736 67.2772
736 19.25 12.5 1.4 14.0988 -53.286 29.0267
737 19.5 12.5 1.4 14.3452 -55.419 67.6394
738 19.75 12.5 1.4 14.5917 -57.6994 21.9106
739 20 12.5 1.4 14.8383 -63.0327 77.5232
740 20.25 12.5 1.4 15.085 -67.431 23.5799
741 20.5 12.5 1.4 15.3319 -60.2534 -55.8393
742 20.75 12.5 1.4 15.5788 -63.7752 24.6032
743 21 12.5 1.4 15.8258 -58.6554 -5.05633
744 21.25 12.5 1.4 16.0729 -64.914 -159.296
745 21.5 12.5 1.4 16.3201 -74.7348 -2.54028
746 21.75 12.5 1.4 16.5674 -82.4622 19.0538
747 22 12.5 1.4 16.8148 -61.5034 -32.4483
748 22.25 12.5 1.4 17.0623 -57.0808 65.9306
749 22.5 12.5 1.4 17.3098 -61.7079 -160.412
750 22.75 12.5 1.4 17.5574 -62.8124 35.0045
751 23 12.5 1.4 17.805 -74.9893 -165.142
752 23.25 12.5 1.4 18.0527 -66.7784 26.2095
753 23.5 12.5 1.4 18.3005 -71.8719 86.5455
754 23.75 12.5 1.4 18.5484 -66.4472 -105.325
755 24 12.5 1.4 18.7963 -64.6923 -13.3529
756 24.25 12.5 1.4 19.0442 -76.3937 111.367
757 -7 12.75 1.4 12.5475 -59.7712 -20.2911
758 -6.75 12.75 1.4 12.3014 -57.9053 -41.5341
759 -6.5 12.75 1.4 12.0553 -53.8844 -50.43
760 -6.25 12.75 1.4 11.8095 -55.0246 -23.8397
761 -6 12.75 1.4 11.5638 -55.8688 72.8772
762 -5.75 12.75 1.4 11.3183 -63.995 -129.728
763 -5.5 12.75 1.4 11.073 -59.2314 -12.0166
764 -5.25 12.75 1.4 10.828 -62.9363 2.23747
765 -5 12.75 1.4 10.5831 -53.8802 -6.44661
766 -4.75 12.75 1.4 10.3385 -57.9186 -3.0079
767 -4.5 12.75 1.4 10.0942 -60.0612 7.67036
768 -4.25 12.75 1.4 9.85018 -54.9788 26.9591
769 -4 12.75 1.4 9.60645 -57.7251 42.7592
770 -3.75 12.75 1.4 9.36305 -53.508 19.4593
771 -3.5 12.75 1.4 9.12 -65.8519 24.4973
772 -3.25 12.75 1.4 8.87734 -59.4601 30.5668
773 -3 12.75 1.4 8.6351 -56.8046 18.2156
774 -2.75 12.75 1.4 8.39332 -54.7329 20.2422
775 -2.5 12.75 1.4 8.15203 -58.7239 3.36565
776 -2.25 12.75 1.4 7.91128 -55.3577 17.6798
777 -2 12.75 1.4 7.67112 -54.4729 -9.54195
778 -1.75 12.75 1.4 7.43161 -51.3671 -14.2961
779 -1.5 12.75 1.4 7.19282 -53.0831 -32.6784
780 -1.25 12.75 1.4 6.95481 -52.9832 -55.6964
781 -1 12.75 1.4 6.71768 -49.4139 -52.6343
782 -0.75 12.75 1.4 6.48151 -51.2954 -110.63
783 -0.5 12.75 1.4 6.24642 -50.7535 -88.8739
784 -0.25 12.75 1.4 6.01253 -51.1103 -155.61
785 -1.77636e-15 12.75 1.4 5.78 -52.842 -162.559
786 0.25 12.75 1.4 5.54897 -54.4909 165.943
787 0.5 12.75 1.4 5.31967 -50.4706 127.232
788 0.75 12.75 1.4 5.09232 -50.5073 48.9415
789 1 12.75 1.4 4.86718 -48.0474 3.90713
790 1.25 12.75 1.4 4.64459 -61.7808 111.361
791 1.5 12.75 1.4 4.42493 -54.5187 -47.7797
792 1.75 12.75 1.4 4.20866 -56.9682 -78.0995
793 2 12.75 1.4 3.99632 -51.4465 175.534
794 2.25 12.75 1.4 3.78858 -50.5091 73.2697
795 2.5 12.75 1.4 3.58624 -52.5074 -79.9131
796 2.75 12.75 1.4 3.39027 -52.9472 164.791
797 3 12.75 1.4 3.20183 -54.5704 15.8755
798 3.25 12.75 1.4 3.02233 -48.5567 175.662
799 3.5 12.75 1.4 2.85346 -49.0049 -29.017
800 3.75 12.75 1.4 2.69723 -47.7181 57.431
801 4 12.75 1.4 2.55594 -46.4424 117.978
802 4.25 12.75 1.4 2.4322 -45.287 119.347
803 4.5 12.75 1.4 2.32881 -48.5102 47.3061
804 4.75 12.75 1.4 2.24859 -43.8041 -60.4982
805 5 12.75 1.4 2.19407 -42.8576 83.0505
806 5.25 12.75 1.4 2.16719 -44.6177 156.834
807 5.5 12.75 1.4 2.16898 -44.4964 137.688
808 5.75 12.75 1.4 2.19938 -41.9785 -39.6708
809 6 12.75 1.4 2.25722 -43.9353 154.617
810 6.25 12.75 1.4 2.34048 -43.2144 -88.9168
811 6.5 12.75 1.4 2.44655 -45.3335 -54.7151
812 6.75 12.75 1.4 2.57262 -45.302 -57.8863
813 7 12.75 1.4 2.71591 -46.7682 -107.684
814 7.25 12.75 1.4 2.87384 -46.9539 131.417
815 7.5 12.75 1.4 3.04413 -45.8315 -11.423
816 7.75 12.75 1.4 3.22483 -46.4928 164.367
817 8 12.75 1.4 3.41428 -46.6516 -30.545
818 8.25 12.75 1.4 3.6111 -45.9323 126.705
819 8.5 12.75 1.4 3.81416 -47.6124 -149.019
820 8.75 12.75 1.4 4.02251 -47.4346 -19.4799
821 9 12.75 1.4 4.23538 -47.1005 66.6788
822 9.25 12.75 1.4 4.4521 -50.9023 165.622
823 9.5 12.75 1.4 4.67215 -51.3439 -167.677
824 9.75 12.75 1.4 4.89507 -46.341 -78.1898
825 10 12.75 1.4 5.1205 -50.2209 -52.094
826 10.25 12.75 1.4 5.34811 -49.1259 40.3426
827 10.5 12.75 1.4 5.57764 -53.2102 27.7391
828 10.75 12.75 1.4 5.80886 -49.5863 77.2345
829 11 12.75 1.4 6.04158 -51.7942 122.663
830 11.25 12.75 1.4 6.27562 -52.4696 169.868
831 11.5 12.75 1.4 6.51085 -51.7499 172.758
832 11.75 12.75 1.4 6.74715 -54.7191 -146.131
833 12 12.75 1.4 6.98439 -56.7842 -128.343
834 12.25 12.75 1.4 7.2225 -52.7593 -154.754
835 12.5 12.75 1.4 7.46139 -53.5704 -106.071
836 12.75 12.75 1.4 7.70098 -55.4126 -99.9446
837 13 12.75 1.4 7.94121 -56.0897 -84.985
838 13.25 12.75 1.4 8.18203 -76.2004 -78.6767
839 13.5 12.75 1.4 8.42339 -54.1688 -109.563
840 13.75 12.75 1.4 8.66523 -55.4624 -102.794
841 14 12.75 1.4 8.90752 -54.9079 -75.9635
842 14.25 12.75 1.4 9.15023 -54.8571 -50.2632
843 14.5 12.75 1.4 9.39332 -58.5867 -67.3402
844 14.75 12.75 1.4 9.63677 -53.9231 -148.329
845 15 12.75 1.4 9.88054 -53.718 -108.861
846 15.25 12.75 1.4 10.1246 -54.5445 -42.3639
847 15.5 12.75 1.4 10.369 -59.3051 10.0064
848 15.75 12.75 1.4 10.6136 -56.0318 -99.0007
849 16 12.75 1.4 10.8585 -54.7795 -98.1462
850 16.25 12.75 1.4 11.1036 -58.9235 -116.375
851 16.5 12.75 1.4 11.3489 -58.7224 -116.707
852 16.75 12.75 1.4 11.5944 -62.906 -117.359
853 17 12.75 1.4 11.8401 -61.0413 -100.812
854 17.25 12.75 1.4 12.0859 -56.4944 -115.96
855 17.5 12.75 1.4 12.332 -58.9646 -110.818
856 17.75 12.75 1.4 12.5782 -53.9826 -113.284
857 18 12.75 1.4 12.8245 -57.8424 -145.404
858 18.25 12.75 1.4 13.071 -66.4551 -138.333
859 18.5 12.75 1.4 13.3176 -57.7594 -156.353
860 18.75 12.75 1.4 13.5644 -58.5498 153.589
861 19 12.75 1.4 13.8112 -62.5705 -146.839
862 19.25 12.75 1.4 14.0582 -58.1014 152.224
863 19.5 12.75 1.4 14.3052 -60.0488 164.872
864 19.75 12.75 1.4 14.5524 -60.0361 168.019
865 20 12.75 1.4 14.7997 -65.475 -133.449
866 20.25 12.75 1.4 15.047 -56.5261 -156.232
867 20.5 12.75 1.4 15.2945 -58.0715 -120.128
868 20.75 12.75 1.4 15.542 -64.4519 20.1965
869 21 12.75 1.4 15.7896 -58.845 138.065
870 21.25 12.75 1.4 16.0373 -68.4678 119.063
871 21.5 12.75 1.4 16.285 -65.2065 81.7786
872 21.75 12.75 1.4 16.5329 -65.5076 -151.537
873 22 12.75 1.4 16.7807 -62.2774 72.9718
874 22.25 12.75 1.4 17.0287 -65.3612 143.468
875 22.5 12.75 1.4 17.2767 -61.1042 108.055
876 22.75 12.75 1.4 17.5247 -60.6866 176.17
877 23 12.75 1.4 17.7728 -66.4886 -47.9821
878 23.25 12.75 1.4 18.021 -70.3453 37.9237
879 23.5 12.75 1.4 18.2692 -68.0548 176.554
880 23.75 12.75 1.4 18.5175 -65.7941 -16.4109
881 24 12.75 1.4 18.7658 -69.0656 4.10861
882 24.25 12.75 1.4 19.0142 -71.0854 -63.9804
883 -7 13 1.4 12.5068 -54.2637 68.0781
884 -6.75 13 1.4 12.2598 -53.9894 72.3563
885 -6.5 13 1.4 12.013 -65.2313 106.303
886 -6.25 13 1.4 11.7662 -64.8518 70.8379
887 -6 13 1.4 11.5196 -63.9062 49.1661
888 -5.75 13 1.4 11.2732 -53.9659 97.0997
889 -5.5 13 1.4 11.0269 -52.6837 123.174
890 -5.25 13 1.4 10.7808 -61.2597 145.084
891 -5 13 1.4 10.5348 -70.3949 138.117
892 -4.75 13 1.4 10.2891 -65.2916 -163.21
893 -4.5 13 1.4 10.0436 -56.0639 -170.487
894 -4.25 13 1.4 9.79828 -57.1923 -158.635
895 -4 13 1.4 9.55323 -62.6136 -42.5384
896 -3.75 13 1.4 9.30843 -54.4238 -165.574
897 -3.5 13 1.4 9.06392 -57.2992 -139.419
898 -3.25 13 1.4 8.81972 -52.957 177.912
899 -3 13 1.4 8.57585 -55.9733 -171.133
900 -2.75 13 1.4 8.33235 -53.3421 -171.934
901 -2.5 13 1.4 8.08924 -54.569 166.999
902 -2.25 13 1.4 7.84657 -54.5833 -175.078
903 -2 13 1.4 7.60437 -52.9285 174.878
904 -1.75 13 1.4 7.36269 -52.7705 -177.179
905 -1.5 13 1.4 7.12158 -54.4399 162.646
906 -1.25 13 1.4 6.88111 -57.8867 136.326
907 -1 13 1.4 6.64135 -49.7911 159.73
908 -0.75 13 1.4 6.40237 -54.1032 91.817
909 -0.5 13 1.4 6.16426 -49.4033 137.637
910 -0.25 13 1.4 5.92713 -51.642 83.3223
911 -1.77636e-15 13 1.4 5.6911 -52.6656 57.8271
912 0.25 13 1.4 5.45632 -51.8984 41.7805
913 0.5 13 1.4 5.22295 -50.4773 28.8359
914 0.75 13 1.4 4.99119 -49.8552 5.63655
915 1 13 1.4 4.76128 -47.5276 -54.5373
916 1.25 13 1.4 4.53349 -52.2295 -103.811
917 1.5 13 1.4 4.30817 -46.5901 -136.655
918 1.75 13 1.4 4.08572 -55.6348 -87.1832
919 2 13 1.4 3.86663 -54.5188 -153.886
920 2.25 13 1.4 3.65153 -48.9313 102.96
921 2.5 13 1.4 3.44114 -54.5418 21.5233
922 2.75 13 1.4 3.23639 -52.2436 -87.8077
923 3 13 1.4 3.03842 -47.2975 130.019
924 3.25 13 1.4 2.84864 -49.2795 -39.7054
925 3.5 13 1.4 2.66881 -48.523 117.431
926 3.75 13 1.4 2.50106 -47.1474 -101.608
927 4 13 1.4 2.348 -50.5947 5.54165
928 4.25 13 1.4 2.21266 -45.9061 53.7745
929 4.5 13 1.4 2.09849 -46.5884 1.60597
930 4.75 13 1.4 2.00909 -43.5912 -67.4508
931 5 13 1.4 1.94788 -42.3209 88.8478
932 5.25 13 1.4 1.91755 -44.1924 176.113
933 5.5 13 1.4 1.91958 -44.8121 153.118
934 5.75 13 1.4 1.95386 -40.665 -28.3216
935 6 13 1.4 2.01875 -43.2835 139.408
936 6.25 13 1.4 2.11143 -43.1058 -133.791
937 6.5 13 1.4 2.22843 -41.2854 -125.715
938 6.75 13 1.4 2.36615 -44.0465 -172.388
939 7 13 1.4 2.5212 -42.9303 79.4971
940 7.25 13 1.4 2.69058 -42.4708 -44.5618
941 7.5 13 1.4 2.87176 -45.4402 138.302
942 7.75 13 1.4 3.06264 -46.7709 -56.5272
943 8 13 1.4 3.26153 -47.118 64.5979
944 8.25 13 1.4 3.46704 -45.2875 175.781
945 8.5 13 1.4 3.67806 -47.7504 -84.9499
946 8.75 13 1.4 3.8937 -46.9209 -11.0081
947 9 13 1.4 4.11323 -49.4528 60.9477
948 9.25 13 1.4 4.33607 -48.03 139.641
949 9.5 13 1.4 4.56172 -52.2919 147.862
950 9.75 13 1.4 4.78978 -47.4692 -135.559
951 10 13 1.4 5.01994 -50.9937 -85.9703
952 10.25 13 1.4 5.25191 -50.5416 -60.1757
953 10.5 13 1.4 5.48547 -55.6499 -32.2198
954 10.75 13 1.4 5.72041 -50.151 -19.3598
955 11 13 1.4 5.95659 -50.7361 23.2882
956 11.25 13 1.4 6.19384 -51.4233 41.8455
957 11.5 13 1.4 6.43207 -55.4821 38.2003
958 11.75 13 1.4 6.67115 -50.915 60.7939
959 12 13 1.4 6.91101 -55.1898 64.2193
960 12.25 13 1.4 7.15156 -55.148 74.3191
961 12.5 13 1.4 7.39274 -53.9324 83.652
962 12.75 13 1.4 7.63449 -55.563 68.4658
963 13 13 1.4 7.87675 -53.6421 104.4
964 13.25 13 1.4 8.11948 -57.3659 79.9526
965 13.5 13 1.4 8.36264 -53.8675 73.7007
966 13.75 13 1.4 8.60619 -55.2495 89.6296
967 14 13 1.4 8.8501 -55.4807 98.0585
968 14.25 13 1.4 9.09434 -56.0204 55.8209
969 14.5 13 1.4 9.33889 -56.339 104.117
970 14.75 13 1.4 9.58372 -51.3408 106.39
971 15 13 1.4 9.8288 -63.9951 82.7325
972 15.25 13 1.4 10.0741 -55.0635 13.4426
973 15.5 13 1.4 10.3197 -53.8332 40.9056
974 15.75 13 1.4 10.5655 -56.6555 92.0903
975 16 13 1.4 10.8114 -59.3895 50.5339
976 16.25 13 1.4 11.0575 -58.5176 24.314
977 16.5 13 1.4 11.3039 -55.2493 23.5624
978 16.75 13 1.4 11.5503 -55.9689 18.7411
979 17 13 1.4 11.7969 -59.1388 22.2972
980 17.25 13 1.4 12.0437 -56.4408 -8.81791
981 17.5 13 1.4 12.2906 -57.5446 -33.6021
982 17.75 13 1.4 12.5376 -55.8988 -8.76886
983 18 13 1.4 12.7847 -64.8233 18.9282
984 18.25 13 1.4 13.0319 -68.272 166.326
985 18.5 13 1.4 13.2793 -62.2092 76.5114
986 18.75 13 1.4 13.5267 -69.2118 -119.308
987 19 13 1.4 13.7742 -68.153 7.06093
988 19.25 13 1.4 14.0219 -61.5514 -81.1627
989 19.5 13 1.4 14.2696 -68.5861 45.9584
990 19.75 13 1.4 14.5173 -61.5331 -7.1244
991 20 13 1.4 14.7652 -74.2338 -65.3104
992 20.25 13 1.4 15.0131 -66.8093 -21.2784
993 20.5 13 1.4 15.2611 -64.3034 -41.1838
994 20.75 13 1.4 15.5092 -61.8608 15.5165
995 21 13 1.4 15.7573 -73.1946 -109.909
996 21.25 13 1.4 16.0055 -69.8366 -148.97
997 21.5 13 1.4 16.2537 -61.7377 -142.592
998 21.75 13 1.4 16.502 -67.2224 -39.1827
999 22 13 1.4 16.7503 -64.8827 171.237
1000 22.25 13 1.4 16.9987 -72.2857 3.26883
1001 22.5 13 1.4 17.2471 -60.3239 101.169
1002 22.75 13 1.4 17.4956 -62.0406 173.18
1003 23 13 1.4 17.7441 -58.5209 -7.13971
1004 23.25 13 1.4 17.9927 -57.1949 61.4971
1005 23.5 13 1.4 18.2413 -66.2022 -34.2068
1006 23.75 13 1.4 18.4899 -64.5512 64.9665
1007 24 13 1.4 18.7386 -67.4203 63.08
1008 24.25 13 1.4 18.9873 -67.7873 72.7434
1009 -7 13.25 1.4 12.471 -57.0451 138.625
1010 -6.75 13.25 1.4 12.2233 -56.9015 162.547
1011 -6.5 13.25 1.4 11.9757 -60.5999 132.07
1012 -6.25 13.25 1.4 11.7281 -63.3073 -176.913
1013 -6 13.25 1.4 11.4807 -53.7439 -137.015
1014 -5.75 13.25 1.4 11.2334 -54.5979 -121.328
1015 -5.5 13.25 1.4 10.9863 -61.6507 -53.2808
1016 -5.25 13.25 1.4 10.7392 -62.8775 -116.33
1017 -5 13.25 1.4 10.4923 -57.3827 -100.047
1018 -4.75 13.25 1.4 10.2455 -56.1832 -78.575
1019 -4.5 13.25 1.4 9.99894 -56.63 -78.6615
1020 -4.25 13.25 1.4 9.75252 -58.7166 -76.6964
1021 -4 13.25 1.4 9.50628 -54.756 -64.9644
1022 -3.75 13.25 1.4 9.26025 -54.4216 -68.5558
1023 -3.5 13.25 1.4 9.01443 -60.764 -20.4033
1024 -3.25 13.25 1.4 8.76885 -52.9012 -34.2327
1025 -3 13.25 1.4 8.52353 -57.0859 0.0550064
1026 -2.75 13.25 1.4 8.27849 -68.1609 129.332
1027 -2.5 13.25 1.4 8.03375 -57.9387 -7.56241
1028 -2.25 13.25 1.4 7.78935 -54.7453 -3.083
1029 -2 13.25 1.4 7.54531 -55.5969 15.3536
1030 -1.75 13.25 1.4 7.30168 -53.3758 -15.8917
1031 -1.5 13.25 1.4 7.05849 -54.0083 23.79
1032 -1.25 13.25 1.4 6.81579 -56.5299 -31.6967
1033 -1 13.25 1.4 6.57364 -50.4308 2.42156
1034 -0.75 13.25 1.4 6.33211 -56.5457 -56.0955
1035 -0.5 13.25 1.4 6.09125 -49.7212 -16.3175
1036 -0.25 13.25 1.4 5.85117 -51.9102 -33.4507
1037 -1.77636e-15 13.25 1.4 5.61194 -52.0721 -51.935
1038 0.25 13.25 1.4 5.3737 -50.5768 -64.5829
1039 0.5 13.25 1.4 5.13658 -49.7451 -103.244
1040 0.75 13.25 1.4 4.90074 -48.3291 -90.5918
1041 1 13.25 1.4 4.66637 -49.4318 -131.052
1042 1.25 13.25 1.4 4.43371 -48.4531 -150.63
1043 1.5 13.25 1.4 4.20305 -48.1334 174.001
1044 1.75 13.25 1.4 3.97472 -46.0133 110.381
1045 2 13.25 1.4 3.74915 -53.8129 73.2237
1046 2.25 13.25 1.4 3.52689 -50.6898 98.5385
1047 2.5 13.25 1.4 3.30858 -56.8439 53.9637
1048 2.75 13.25 1.4 3.09508 -46.7838 -33.0966
1049 3 13.25 1.4 2.88743 -50.2266 -170.443
1050 3.25 13.25 1.4 2.68702 -52.1333 73.8365
1051 3.5 13.25 1.4 2.49556 -48.8797 -60.8384
1052 3.75 13.25 1.4 2.3153 -45.8555 110.858
1053 4 13.25 1.4 2.14904 -44.3696 -140.97
1054 4.25 13.25 1.4 2.00029 -47.2839 -55.1571
1055 4.5 13.25 1.4 1.87322 -43.6456 -46.0484
1056 4.75 13.25 1.4 1.77249 -44.3355 -94.5085
1057 5 13.25 1.4 1.70279 -41.9839 98.4144
1058 5.25 13.25 1.4 1.66802 -43.5818 -155.298
1059 5.5 13.25 1.4 1.67035 -45.7577 179.858
1060 5.75 13.25 1.4 1.70963 -39.8797 -25.1629
1061 6 13.25 1.4 1.78343 -41.7006 108.649
1062 6.25 13.25 1.4 1.8877 -41.6262 162.913
1063 6.5 13.25 1.4 2.01772 -40.9305 150.711
1064 6.75 13.25 1.4 2.16886 -42.3159 56.8045
1065 7 13.25 1.4 2.33704 -44.5174 -66.57
1066 7.25 13.25 1.4 2.51883 -46.0333 89.2551
1067 7.5 13.25 1.4 2.71151 -43.6779 -106.178
1068 7.75 13.25 1.4 2.91292 -45.3052 22.5947
1069 8 13.25 1.4 3.12136 -46.8451 122.25
1070 8.25 13.25 1.4 3.33551 -46.9974 -147.226
1071 8.5 13.25 1.4 3.55435 -46.4799 -87.756
1072 8.75 13.25 1.4 3.77706 -48.0214 -14.025
1073 9 13.25 1.4 4.003 -48.5685 28.0073
1074 9.25 13.25 1.4 4.23164 -47.9272 66.9964
1075 9.5 13.25 1.4 4.46257 -50.7233 109.978
1076 9.75 13.25 1.4 4.69546 -47.2932 142.238
1077 10 13.25 1.4 4.93002 -48.9682 179.594
1078 10.25 13.25 1.4 5.16603 -51.0209 176.78
1079 10.5 13.25 1.4 5.4033 -49.5057 -142.258
1080 10.75 13.25 1.4 5.64167 -54.2907 -145.096
1081 11 13.25 1.4 5.881 -51.4169 -120.907
1082 11.25 13.25 1.4 6.12119 -51.7072 -119.259
1083 11.5 13.25 1.4 6.36214 -53.1062 -148.577
1084 11.75 13.25 1.4 6.60375 -51.5027 -99.8387
1085 12 13.25 1.4 6.84597 -52.9887 -100.382
1086 12.25 13.25 1.4 7.08873 -54.313 -118.858
1087 12.5 13.25 1.4 7.33198 -54.2446 -124.479
1088 12.75 13.25 1.4 7.57566 -53.6902 -113.666
1089 13 13.25 1.4 7.81975 -57.1402 -111.169
1090 13.25 13.25 1.4 8.06419 -55.5833 -119.909
1091 13.5 13.25 1.4 8.30897 -51.6948 -97.9063
1092 13.75 13.25 1.4 8.55405 -58.3663 -108.43
1093 14 13.25 1.4 8.79941 -56.137 -126.921
1094 14.25 13.25 1.4 9.04502 -56.7557 -118.785
1095 14.5 13.25 1.4 9.29086 -60.8437 -147.837
1096 14.75 13.25 1.4 9.53692 -56.7691 -131.402
1097 15 13.25 1.4 9.78318 -56.6177 -136.022
1098 15.25 13.25 1.4 10.0296 -52.9577 -122.078
1099 15.5 13.25 1.4 10.2762 -67.0958 146.96
1100 15.75 13.25 1.4 10.523 -52.3532 130.702
1101 16 13.25 1.4 10.7699 -51.571 177.143
1102 16.25 13.25 1.4 11.017 -60.449 136.179
1103 16.5 13.25 1.4 11.2642 -79.0165 0.276296
1104 16.75 13.25 1.4 11.5115 -64.5221 177.307
1105 17 13.25 1.4 11.759 -61.7416 -164.237
1106 17.25 13.25 1.4 12.0065 -59.0412 -172.409
1107 17.5 13.25 1.4 12.2541 -73.3584 -29.9487
1108 17.75 13.25 1.4 12.5019 -73.774 53.3873
1109 18 13.25 1.4 12.7497 -60.5655 125.736
1110 18.25 13.25 1.4 12.9976 -66.8676 99.0291
1111 18.5 13.25 1.4 13.2456 -60.9642 -173.266
1112 18.75 13.25 1.4 13.4936 -77.2083 -42.4867
1113 19 13.25 1.4 13.7417 -62.2851 -147.133
1114 19.25 13.25 1.4 13.9899 -66.0867 34.4545
1115 19.5 13.25 1.4 14.2382 -65.9087 -34.3992
1116 19.75 13.25 1.4 14.4865 -59.823 82.1258
1117 20 13.25 1.4 14.7349 -62.1863 40.5425
1118 20.25 13.25 1.4 14.9833 -61.7959 -66.2793
1119 20.5 13.25 1.4 15.2318 -65.6457 -28.864
1120 20.75 13.25 1.4 15.4803 -68.5983 -150.552
1121 21 13.25 1.4 15.7289 -63.363 -82.6521
1122 21.25 13.25 1.4 15.9775 -55.4317 -162.819
1123 21.5 13.25 1.4 16.2262 -52.7789 -111.522
1124 21.75 13.25 1.4 16.4749 -63.1498 171.633
1125 22 13.25 1.4 16.7236 -61.6452 -130.202
1126 22.25 13.25 1.4 16.9724 -64.9601 163.713
1127 22.5 13.25 1.4 17.2212 -60.5129 146.021
1128 22.75 13.25 1.4 17.47 -72.8869 12.5033
1129 23 13.25 1.4 17.7189 -61.5371 119.358
1130 23.25 13.25 1.4 17.9678 -66.1946 40.1433
1131 23.5 13.25 1.4 18.2168 -55.911 73.5511
1132 23.75 13.25 1.4 18.4657 -61.6705 60.1538
1133 24 13.25 1.4 18.7147 -61.4473 135.868
1134 24.25 13.25 1.4 18.9637 -72.9837 -32.0509
1135 -7 13.5 1.4 12.4401 -56.2582 -125.599
1136 -6.75 13.5 1.4 12.1918 -62.4578 -141.188
1137 -6.5 13.5 1.4 11.9435 -60.9413 -54.6668
1138 -6.25 13.5 1.4 11.6953 -55.428 -35.9532
1139 -6 13.5 1.4 11.4472 -58.6597 -18.4686
1140 -5.75 13.5 1.4 11.1991 -69.6736 -39.6353
1141 -5.5 13.5 1.4 10.9512 -60.2959 -65.5037
1142 -5.25 13.5 1.4 10.7033 -53.7423 -15.6321
1143 -5 13.5 1.4 10.4556 -57.1541 18.4374
1144 -4.75 13.5 1.4 10.2079 -61.1158 37.9731
1145 -4.5 13.5 1.4 9.96038 -58.7332 44.5791
1146 -4.25 13.5 1.4 9.71298 -55.2033 44.5516
1147 -4 13.5 1.4 9.46571 -54.5908 64.0238
1148 -3.75 13.5 1.4 9.2186 -56.3492 86.6198
1149 -3.5 13.5 1.4 8.97164 -56.8611 90.2999
1150 -3.25 13.5 1.4 8.72485 -53.0935 84.8616
1151 -3 13.5 1.4 8.47826 -57.3852 113.425
1152 -2.75 13.5 1.4 8.23187 -52.5634 82.1154
1153 -2.5 13.5 1.4 7.9857 -67.8758 -103.004
1154 -2.25 13.5 1.4 7.73978 -85.1599 9.80317
1155 -2 13.5 1.4 7.49413 -54.9308 132.885
1156 -1.75 13.5 1.4 7.24878 -53.3461 105.246
1157 -1.5 13.5 1.4 7.00375 -68.7674 -70.5877
1158 -1.25 13.5 1.4 6.75909 -53.2006 140.377
1159 -1 13.5 1.4 6.51484 -51.8763 -172.199
1160 -0.75 13.5 1.4 6.27103 -56.4737 148.154
1161 -0.5 13.5 1.4 6.02774 -49.5365 171.003
1162 -0.25 13.5 1.4 5.78502 -52.0362 135.084
1163 -1.77636e-15 13.5 1.4 5.54294 -52.7933 166.489
1164 0.25 13.5 1.4 5.3016 -51.305 166.39
1165 0.5 13.5 1.4 5.0611 -50.391 135.822
1166 0.75 13.5 1.4 4.82157 -48.664 114.767
1167 1 13.5 1.4 4.58316 -53.308 101.2
1168 1.25 13.5 1.4 4.34604 -46.3549 115.064
1169 1.5 13.5 1.4 4.11046 -47.4501 58.1832
1170 1.75 13.5 1.4 3.87668 -46.5268 47.4159
1171 2 13.5 1.4 3.64506 -48.2847 14.4646
1172 2.25 13.5 1.4 3.41602 -47.4089 -23.7014
1173 2.5 13.5 1.4 3.19014 -46.445 -92.0526
1174 2.75 13.5 1.4 2.96813 -47.8436 -29.2801
1175 3 13.5 1.4 2.75092 -51.6696 -114.834
1176 3.25 13.5 1.4 2.53975 -50.6527 167.693
1177 3.5 13.5 1.4 2.33626 -45.7062 44.0296
1178 3.75 13.5 1.4 2.14264 -48.7812 -120.121
1179 4 13.5 1.4 1.9618 -48.0307 77.1059
1180 4.25 13.5 1.4 1.79763 -43.7139 -177.337
1181 4.5 13.5 1.4 1.65506 -42.199 -111.998
1182 4.75 13.5 1.4 1.54013 -43.8787 -132.951
1183 5 13.5 1.4 1.45938 -40.8019 97.4207
1184 5.25 13.5 1.4 1.41865 -41.7413 -136.057
1185 5.5 13.5 1.4 1.42139 -44.4281 -154.247
1186 5.75 13.5 1.4 1.46736 -38.6409 -28.0963
1187 6 13.5 1.4 1.55271 -39.6608 69.0232
1188 6.25 13.5 1.4 1.67143 -40.4832 81.8496
1189 6.5 13.5 1.4 1.817 -42.6498 18.6099
1190 6.75 13.5 1.4 1.98349 -41.3188 -120.219
1191 7 13.5 1.4 2.16611 -41.5969 54.0648
1192 7.25 13.5 1.4 2.3611 -43.3322 -133.633
1193 7.5 13.5 1.4 2.56566 -44.2091 -54.5144
1194 7.75 13.5 1.4 2.77766 -44.6972 72.5655
1195 8 13.5 1.4 2.99552 -45.9752 129.902
1196 8.25 13.5 1.4 3.21806 -47.6225 -153.904
1197 8.5 13.5 1.4 3.44437 -46.4909 -138.698
1198 8.75 13.5 1.4 3.67376 -47.2942 -58.9432
1199 9 13.5 1.4 3.90567 -48.0249 -48.8075
1200 9.25 13.5 1.4 4.13969 -48.616 -20.7749
1201 9.5 13.5 1.4 4.37548 -46.1852 19.9351
1202 9.75 13.5 1.4 4.61277 -52.1224 6.40731
1203 10 13.5 1.4 4.85133 -50.398 28.9555
1204 10.25 13.5 1.4 5.09099 -50.961 49.7768
1205 10.5 13.5 1.4 5.3316 -70.1108 174.97
1206 10.75 13.5 1.4 5.57304 -54.4344 45.7766
1207 11 13.5 1.4 5.8152 -50.9826 37.5176
1208 11.25 13.5 1.4 6.05799 -50.9592 67.4606
1209 11.5 13.5 1.4 6.30135 -54.6934 72.3315
1210 11.75 13.5 1.4 6.54522 -52.5591 66.3891
1211 12 13.5 1.4 6.78952 -54.9607 39.9646
1212 12.25 13.5 1.4 7.03423 -54.6119 62.0601
1213 12.5 13.5 1.4 7.2793 -52.0204 34.5673
1214 12.75 13.5 1.4 7.52469 -52.3307 55.3611
1215 13 13.5 1.4 7.77038 -55.2312 25.1302
1216 13.25 13.5 1.4 8.01633 -54.7187 17.6493
1217 13.5 13.5 1.4 8.26252 -56.2428 -22.1425
1218 13.75 13.5 1.4 8.50894 -53.2956 22.9031
1219 14 13.5 1.4 8.75556 -57.0094 -4.86357
1220 14.25 13.5 1.4 9.00237 -54.5234 -20.1897
1221 14.5 13.5 1.4 9.24935 -53.4764 -27.6554
1222 14.75 13.5 1.4 9.49648 -67.6351 120.245
1223 15 13.5 1.4 9.74377 -61.6995 -153.555
1224 15.25 13.5 1.4 9.99118 -90.7454 141.646
1225 15.5 13.5 1.4 10.2387 -56.238 7.18142
1226 15.75 13.5 1.4 10.4864 -56.7911 84.3098
1227 16 13.5 1.4 10.7342 -60.6195 -176.404
1228 16.25 13.5 1.4 10.982 -55.2748 -82.9048
1229 16.5 13.5 1.4 11.23 -58.3509 -5.7932
1230 16.75 13.5 1.4 11.478 -59.5461 43.7216
1231 17 13.5 1.4 11.7262 -70.1594 179.004
1232 17.25 13.5 1.4 11.9744 -63.6855 -57.3827
1233 17.5 13.5 1.4 12.2227 -69.3894 -97.6042
1234 17.75 13.5 1.4 12.471 -58.9555 160.513
1235 18 13.5 1.4 12.7194 -81.2817 -118.324
1236 18.25 13.5 1.4 12.9679 -62.6033 173.965
1237 18.5 13.5 1.4 13.2165 -64.582 -82.5295
1238 18.75 13.5 1.4 13.4651 -62.4 160.012
1239 19 13.5 1.4 13.7137 -67.4598 -16.7437
1240 19.25 13.5 1.4 13.9624 -65.266 -126.231
1241 19.5 13.5 1.4 14.2111 -55.7817 58.5946
1242 19.75 13.5 1.4 14.4599 -58.0707 60.0937
1243 20 13.5 1.4 14.7087 -70.0816 94.3678
1244 20.25 13.5 1.4 14.9576 -62.7447 31.5421
1245 20.5 13.5 1.4 15.2065 -60.6605 -19.7805
1246 20.75 13.5 1.4 15.4554 -61.7968 -79.2166
1247 21 13.5 1.4 15.7044 -66.304 92.7885
1248 21.25 13.5 1.4 15.9534 -59.4263 -64.0507
1249 21.5 13.5 1.4 16.2024 -77.72 -1.96132
1250 21.75 13.5 1.4 16.4515 -58.3549 -57.7925
1251 22 13.5 1.4 16.7006 -62.2625 27.8983
1252 22.25 13.5 1.4 16.9497 -62.7888 123.283
1253 22.5 13.5 1.4 17.1988 -63.8264 78.0774
1254 22.75 13.5 1.4 17.448 -63.7483 148.557
1255 23 13.5 1.4 17.6972 -65.6044 -160.526
1256 23.25 13.5 1.4 17.9464 -66.1092 -42.2856
1257 23.5 13.5 1.4 18.1956 -66.0076 32.2633
1258 23.75 13.5 1.4 18.4449 -64.6949 151.651
1259 24 13.5 1.4 18.6941 -73.5616 -48.4015
1260 24.25 13.5 1.4 18.9434 -68.1121 -95.5933
1261 -7 13.75 1.4 12.4142 -82.7742 -179.537
1262 -6.75 13.75 1.4 12.1653 -62.5704 132.315
1263 -6.5 13.75 1.4 11.9165 -63.0192 107.89
1264 -6.25 13.75 1.4 11.6677 -68.8218 168.023
1265 -6 13.75 1.4 11.419 -68.1605 -36.1281
1266 -5.75 13.75 1.4 11.1703 -71.9576 62.4154
1267 -5.5 13.75 1.4 10.9217 -60.5997 135.768
1268 -5.25 13.75 1.4 10.6731 -63.4695 -166.235
1269 -5 13.75 1.4 10.4247 -59.5813 -78.3841
1270 -4.75 13.75 1.4 10.1763 -58.3849 108.592
1271 -4.5 13.75 1.4 9.92796 -55.8959 116.608
1272 -4.25 13.75 1.4 9.67973 -59.0037 137.147
1273 -4 13.75 1.4 9.4316 -59.778 168.745
1274 -3.75 13.75 1.4 9.18356 -58.4037 161.875
1275 -3.5 13.75 1.4 8.93564 -58.1535 -176.277
1276 -3.25 13.75 1.4 8.68783 -54.2848 -153.148
1277 -3 13.75 1.4 8.44015 -61.0668 -143.399
1278 -2.75 13.75 1.4 8.19261 -53.0987 -137.49
1279 -2.5 13.75 1.4 7.94523 -58.2333 -104.109
1280 -2.25 13.75 1.4 7.69802 -58.4507 -101.24
1281 -2 13.75 1.4 7.45099 -55.3075 -120.713
1282 -1.75 13.75 1.4 7.20417 -51.0183 -92.4498
1283 -1.5 13.75 1.4 6.95757 -56.8864 -105.434
1284 -1.25 13.75 1.4 6.71123 -50.2897 -66.9998
1285 -1 13.75 1.4 6.46517 -56.1997 -68.5468
1286 -0.75 13.75 1.4 6.21942 -51.78 -81.6837
1287 -0.5 13.75 1.4 5.97402 -52.2801 -53.2074
1288 -0.25 13.75 1.4 5.72902 -51.5237 -56.542
1289 -1.77636e-15 13.75 1.4 5.48448 -53.0139 -40.2161
1290 0.25 13.75 1.4 5.24045 -50.5125 -32.3377
1291 0.5 13.75 1.4 4.997 -52.4505 -7.98829
1292 0.75 13.75 1.4 4.75424 -49.2144 -37.6633
1293 1 13.75 1.4 4.51227 -52.6447 -51.2887
1294 1.25 13.75 1.4 4.27123 -49.9883 -38.108
1295 1.5 13.75 1.4 4.03127 -46.7577 -48.9699
1296 1.75 13.75 1.4 3.79262 -53.1168 -51.2786
1297 2 13.75 1.4 3.55552 -43.4932 -94.7925
1298 2.25 13.75 1.4 3.32032 -50.781 -105.147
1299 2.5 13.75 1.4 3.08744 -43.24 -141.489
1300 2.75 13.75 1.4 2.85746 -49.4467 173.341
1301 3 13.75 1.4 2.63113 -41.5596 125.185
1302 3.25 13.75 1.4 2.40949 -50.7191 -149.063
1303 3.5 13.75 1.4 2.19395 -46.0032 90.5185
1304 3.75 13.75 1.4 1.9865 -47.7432 -1.67157
1305 4 13.75 1.4 1.78996 -42.8871 -145.348
1306 4.25 13.75 1.4 1.60834 -44.5731 34.2343
1307 4.5 13.75 1.4 1.44725 -44.7003 154.255
1308 4.75 13.75 1.4 1.31427 -42.2252 178.497
1309 5 13.75 1.4 1.21864 -39.5868 90.3545
1310 5.25 13.75 1.4 1.16956 -40.3824 -114.467
1311 5.5 13.75 1.4 1.17288 -49.357 45.7958
1312 5.75 13.75 1.4 1.22818 -37.2744 -38.8965
1313 6 13.75 1.4 1.32898 -37.5415 17.2979
1314 6.25 13.75 1.4 1.46594 -38.5804 -26.872
1315 6.5 13.75 1.4 1.62996 -39.7508 -150.077
1316 6.75 13.75 1.4 1.81371 -41.8458 29.3089
1317 7 13.75 1.4 2.01179 -42.1739 154.993
1318 7.25 13.75 1.4 2.22038 -41.4511 -93.4257
1319 7.5 13.75 1.4 2.43678 -45.9713 -23.5565
1320 7.75 13.75 1.4 2.65907 -42.3512 58.4551
1321 8 13.75 1.4 2.8859 -45.9609 68.4881
1322 8.25 13.75 1.4 3.11628 -47.8173 131.704
1323 8.5 13.75 1.4 3.34948 -45.8635 151.787
1324 8.75 13.75 1.4 3.58494 -45.211 -178.163
1325 9 13.75 1.4 3.82224 -49.6381 -177.423
1326 9.25 13.75 1.4 4.06108 -46.29 -152.326
1327 9.5 13.75 1.4 4.30118 -50.902 -118.213
1328 9.75 13.75 1.4 4.54234 -52.1954 -160.505
1329 10 13.75 1.4 4.78442 -47.5872 -131.631
1330 10.25 13.75 1.4 5.02727 -51.3629 -123.633
1331 10.5 13.75 1.4 5.27079 -48.8976 -141.158
1332 10.75 13.75 1.4 5.51489 -51.8399 -137.673
1333 11 13.75 1.4 5.7595 -52.8076 -139.411
1334 11.25 13.75 1.4 6.00455 -52.8916 -137.324
1335 11.5 13.75 1.4 6.24999 -52.9198 -166.488
1336 11.75 13.75 1.4 6.49578 -52.6383 -179.59
1337 12 13.75 1.4 6.74188 -54.4308 -154.818
1338 12.25 13.75 1.4 6.98825 -55.5834 -166.934
1339 12.5 13.75 1.4 7.23488 -56.87 154.869
1340 12.75 13.75 1.4 7.48173 -57.5238 169.089
1341 13 13.75 1.4 7.72878 -73.6777 168.528
1342 13.25 13.75 1.4 7.97601 -57.2073 -77.5209
1343 13.5 13.75 1.4 8.22342 -63.7531 142.719
1344 13.75 13.75 1.4 8.47097 -65.0969 179.816
1345 14 13.75 1.4 8.71867 -68.995 -110.784
1346 14.25 13.75 1.4 8.96649 -60.7186 -149.263
1347 14.5 13.75 1.4 9.21443 -68.5139 -151.328
1348 14.75 13.75 1.4 9.46248 -59.7218 130.522
1349 15 13.75 1.4 9.71063 -58.9832 126.193
1350 15.25 13.75 1.4 9.95887 -75.3569 -17.8601
1351 15.5 13.75 1.4 10.2072 -66.2006 33.5136
1352 15.75 13.75 1.4 10.4556 -58.8979 20.1035
1353 16 13.75 1.4 10.7041 -72.023 140.603
1354 16.25 13.75 1.4 10.9526 -56.7362 -79.9389
1355 16.5 13.75 1.4 11.2012 -52.5739 -42.8831
1356 16.75 13.75 1.4 11.4499 -61.6677 21.1408
1357 17 13.75 1.4 11.6987 -65.8284 -154.691
1358 17.25 13.75 1.4 11.9474 -53.9861 -116.603
1359 17.5 13.75 1.4 12.1963 -58.7779 -78.2008
1360 17.75 13.75 1.4 12.4452 -62.0309 -114.643
1361 18 13.75 1.4 12.6941 -58.6543 -169.615
1362 18.25 13.75 1.4 12.943 -56.8462 -138.427
1363 18.5 13.75 1.4 13.192 -59.3489 149.049
1364 18.75 13.75 1.4 13.4411 -71.2496 168.754
1365 19 13.75 1.4 13.6902 -58.2645 144.198
1366 19.25 13.75 1.4 13.9393 -61.7729 52.2412
1367 19.5 13.75 1.4 14.1884 -63.686 70.6522
1368 19.75 13.75 1.4 14.4376 -61.518 115.019
1369 20 13.75 1.4 14.6868 -64.1474 104.533
1370 20.25 13.75 1.4 14.936 -68.107 -8.58598
1371 20.5 13.75 1.4 15.1853 -67.2282 -55.0461
1372 20.75 13.75 1.4 15.4345 -57.0734 24.2766
1373 21 13.75 1.4 15.6838 -64.9468 -28.8656
1374 21.25 13.75 1.4 15.9332 -58.4573 20.3886
1375 21.5 13.75 1.4 16.1825 -63.5661 111.1
1376 21.75 13.75 1.4 16.4319 -72.8732 82.9347
1377 22 13.75 1.4 16.6812 -57.0828 50.7147
1378 22.25 13.75 1.4 16.9306 -57.7114 179.289
1379 22.5 13.75 1.4 17.1801 -58.1869 -139.531
1380 22.75 13.75 1.4 17.4295 -55.2017 -174.473
1381 23 13.75 1.4 17.6789 -56.1774 -109.722
1382 23.25 13.75 1.4 17.9284 -61.4509 -89.5378
1383 23.5 13.75 1.4 18.1779 -64.6293 19.8225
1384 23.75 13.75 1.4 18.4274 -62.2915 89.2228
1385 24 13.75 1.4 18.6769 -65.4067 86.4666
1386 24.25 13.75 1.4 18.9264 -66.0852 28.9948
1387 -7 14 1.4 12.3932 -71.4454 176.991
1388 -6.75 14 1.4 12.1439 -76.2677 4.80015
1389 -6.5 14 1.4 11.8946 -72.9698 57.8995
1390 -6.25 14 1.4 11.6454 -63.2887 32.4626
1391 -6 14 1.4 11.3962 -70.001 -177.54
1392 -5.75 14 1.4 11.147 -62.7021 -115.04
1393 -5.5 14 1.4 10.8979 -61.2487 -20.3335
1394 -5.25 14 1.4 10.6488 -61.1751 63.7169
1395 -5 14 1.4 10.3997 -62.0532 163.921
1396 -4.75 14 1.4 10.1507 -58.6982 -135.039
1397 -4.5 14 1.4 9.90175 -68.8443 8.02622
1398 -4.25 14 1.4 9.65285 -70.6087 15.7082
1399 -4 14 1.4 9.404 -70.5893 -153.573
1400 -3.75 14 1.4 9.15522 -65.512 -108.861
1401 -3.5 14 1.4 8.90651 -69.6551 -86.6458
1402 -3.25 14 1.4 8.65787 -74.7838 113.264
1403 -3 14 1.4 8.40931 -67.0502 -118.069
1404 -2.75 14 1.4 8.16083 -55.3325 -60.3094
1405 -2.5 14 1.4 7.91246 -54.4111 -45.9096
1406 -2.25 14 1.4 7.66419 -54.7788 -19.3135
1407 -2 14 1.4 7.41603 -51.8594 -14.9752
1408 -1.75 14 1.4 7.16801 -66.1962 10.2443
1409 -1.5 14 1.4 6.92012 -78.8168 -159.816
1410 -1.25 14 1.4 6.6724 -62.497 102.584
1411 -1 14 1.4 6.42485 -56.8917 3.2524
1412 -0.75 14 1.4 6.17749 -52.846 62.1026
1413 -0.5 14 1.4 5.93036 -52.1821 70.7757
1414 -0.25 14 1.4 5.68348 -53.6049 47.898
1415 -1.77636e-15 14 1.4 5.43689 -70.2237 95.0425
1416 0.25 14 1.4 5.19062 -71.7091 47.5549
1417 0.5 14 1.4 4.94473 -71.225 128.01
1418 0.75 14 1.4 4.69927 -62.6124 -30.5355
1419 1 14 1.4 4.45431 -51.7084 152.318
1420 1.25 14 1.4 4.20995 -47.6179 119.922
1421 1.5 14 1.4 3.96629 -51.635 108.722
1422 1.75 14 1.4 3.72347 -49.0346 114.15
1423 2 14 1.4 3.48167 -48.1166 142.859
1424 2.25 14 1.4 3.24111 -48.049 100.877
1425 2.5 14 1.4 3.0021 -45.8026 120.279
1426 2.75 14 1.4 2.76502 -46.3333 73.3358
1427 3 14 1.4 2.53044 -42.7284 69.7547
1428 3.25 14 1.4 2.29911 -43.1294 29.3579
1429 3.5 14 1.4 2.07212 -42.282 -10.2697
1430 3.75 14 1.4 1.85107 -46.1449 41.6892
1431 4 14 1.4 1.63837 -44.1233 -77.0665
1432 4.25 14 1.4 1.43772 -43.6843 168.207
1433 4.5 14 1.4 1.25491 -40.4557 -18.6348
1434 4.75 14 1.4 1.0989 -40.5285 93.7699
1435 5 14 1.4 0.982532 -38.0983 72.6204
1436 5.25 14 1.4 0.92095 -37.8226 -102.389
1437 5.5 14 1.4 0.925164 -35.386 121.006
1438 5.75 14 1.4 0.994338 -35.8469 -67.0304
1439 6 14 1.4 1.11646 -36.9371 -66.9246
1440 6.25 14 1.4 1.27643 -38.6602 178.337
1441 6.5 14 1.4 1.46186 -39.272 -23.3031
1442 6.75 14 1.4 1.66428 -40.8172 108.591
1443 7 14 1.4 1.87819 -42.9978 -173.686
1444 7.25 14 1.4 2.10009 -41.7192 -93.3156
1445 7.5 14 1.4 2.3277 -43.4249 -67.3438
1446 7.75 14 1.4 2.55948 -46.4086 -22.0283
1447 8 14 1.4 2.79441 -66.3599 20.4586
1448 8.25 14 1.4 3.03175 -57.6059 -19.6566
1449 8.5 14 1.4 3.27098 -48.359 57.5884
1450 8.75 14 1.4 3.5117 -47.3678 32.3787
1451 9 14 1.4 3.75364 -48.8693 39.4002
1452 9.25 14 1.4 3.99658 -52.5928 48.9155
1453 9.5 14 1.4 4.24033 -47.1233 18.669
1454 9.75 14 1.4 4.48477 -51.2247 53.7386
1455 10 14 1.4 4.72979 -53.2863 -3.49524
1456 10.25 14 1.4 4.97531 -49.3104 16.4619
1457 10.5 14 1.4 5.22126 -50.4626 4.55247
1458 10.75 14 1.4 5.46757 -56.8415 -2.58776
1459 11 14 1.4 5.7142 -52.3445 -38.5122
1460 11.25 14 1.4 5.96111 -50.895 -21.2513
1461 11.5 14 1.4 6.20827 -81.5811 -89.6252
1462 11.75 14 1.4 6.45565 -67.6144 143.328
1463 12 14 1.4 6.70322 -72.7651 -64.2841
1464 12.25 14 1.4 6.95097 -66.9747 -144.965
1465 12.5 14 1.4 7.19887 -70.4677 -13.0175
1466 12.75 14 1.4 7.44691 -65.6401 119.949
1467 13 14 1.4 7.69508 -61.9285 -41.4895
1468 13.25 14 1.4 7.94337 -61.8046 -167.71
1469 13.5 14 1.4 8.19176 -71.3479 33.8129
1470 13.75 14 1.4 8.44024 -66.198 -156.5
1471 14 14 1.4 8.68881 -65.0513 -129.366
1472 14.25 14 1.4 8.93746 -75.2708 56.7121
1473 14.5 14 1.4 9.18618 -67.0811 136.839
1474 14.75 14 1.4 9.43498 -65.9827 29.0307
1475 15 14 1.4 9.68383 -65.7992 -65.3444
1476 15.25 14 1.4 9.93274 -63.2744 -77.2554
1477 15.5 14 1.4 10.1817 -64.1294 -37.667
1478 15.75 14 1.4 10.4307 -76.4333 71.4846
1479 16 14 1.4 10.6798 -74.1979 157.955
1480 16.25 14 1.4 10.9289 -58.6394 -123.926
1481 16.5 14 1.4 11.178 -60.1963 -36.7701
1482 16.75 14 1.4 11.4272 -57.1759 48.2393
1483 17 14 1.4 11.6764 -59.8272 156.042
1484 17.25 14 1.4 11.9257 -59.5699 -149.223
1485 17.5 14 1.4 12.1749 -61.7138 -59.5974
1486 17.75 14 1.4 12.4243 -58.7323 19.005
1487 18 14 1.4 12.6736 -60.2701 -164.684
1488 18.25 14 1.4 12.923 -65.6561 38.9874
1489 18.5 14 1.4 13.1723 -65.0823 -78.3954
1490 18.75 14 1.4 13.4217 -63.8119 119.452
1491 19 14 1.4 13.6712 -67.3813 -105.719
1492 19.25 14 1.4 13.9206 -69.2651 -34.8091
1493 19.5 14 1.4 14.1701 -66.0861 105.811
1494 19.75 14 1.4 14.4196 -70.8351 -89.7066
1495 20 14 1.4 14.6691 -69.7454 -100.182
1496 20.25 14 1.4 14.9186 -62.7023 -151.349
1497 20.5 14 1.4 15.1681 -61.3587 -0.354289
1498 20.75 14 1.4 15.4177 -63.52 156.454
1499 21 14 1.4 15.6673 -63.6331 -7.02278
1500 21.25 14 1.4 15.9168 -61.3462 127.834
1501 21.5 14 1.4 16.1664 -72.9882 -139.102
1502 21.75 14 1.4 16.416 -66.5043 58.8289
1503 22 14 1.4 16.6657 -60.0553 -147.755
1504 22.25 14 1.4 16.9153 -60.8077 -26.6087
1505 22.5 14 1.4 17.1649 -65.7975 -166.335
1506 22.75 14 1.4 17.4146 -55.9069 -63.8314
1507 23 14 1.4 17.6642 -64.634 -14.3173
1508 23.25 14 1.4 17.9139 -60.3176 -6.92226
1509 23.5 14 1.4 18.1636 -69.9596 -7.53078
1510 23.75 14 1.4 18.4133 -78.7043 28.7182
1511 24 14 1.4 18.663 -80.8934 121.478
1512 24.25 14 1.4 18.9127 -64.7204 -114.264
1513 -7 14.25 1.4 12.3773 -69.291 -44.2467
1514 -6.75 14.25 1.4 12.1277 -64.7495 142.498
1515 -6.5 14.25 1.4 11.878 -65.5375 115.013
1516 -6.25 14.25 1.4 11.6284 -64.8404 105.014
1517 -6 14.25 1.4 11.3789 -68.0422 88.572
1518 -5.75 14.25 1.4 11.1293 -57.2662 134.958
1519 -5.5 14.25 1.4 10.8797 -59.6311 -168.538
1520 -5.25 14.25 1.4 10.6302 -68.8204 -103.266
1521 -5 14.25 1.4 10.3807 -67.6574 147.977
1522 -4.75 14.25 1.4 10.1313 -57.1463 165.799
1523 -4.5 14.25 1.4 9.8818 -56.5798 -128.415
1524 -4.25 14.25 1.4 9.63238 -56.9518 -91.1512
1525 -4 14.25 1.4 9.383 -59.3895 -54.8998
1526 -3.75 14.25 1.4 9.13364 -67.1625 -92.6348
1527 -3.5 14.25 1.4 8.88432 -57.1724 -51.1014
1528 -3.25 14.25 1.4 8.63504 -56.567 -21.8216
1529 -3 14.25 1.4 8.3858 -56.8097 4.96833
1530 -2.75 14.25 1.4 8.13661 -58.6773 4.31666
1531 -2.5 14.25 1.4 7.88748 -64.3988 26.8597
1532 -2.25 14.25 1.4 7.63839 -55.7613 48.714
1533 -2 14.25 1.4 7.38937 -60.6418 -170.384
1534 -1.75 14.25 1.4 7.14042 -61.4528 10.0815
1535 -1.5 14.25 1.4 6.89154 -57.1843 138.507
1536 -1.25 14.25 1.4 6.64275 -77.0325 -79.1124
1537 -1 14.25 1.4 6.39406 -68.8464 -88.0596
1538 -0.75 14.25 1.4 6.14546 -69.615 -78.1425
1539 -0.5 14.25 1.4 5.89699 -53.2605 159.118
1540 -0.25 14.25 1.4 5.64865 -58.2313 149.707
1541 -1.77636e-15 14.25 1.4 5.40047 -52.2385 -170.521
1542 0.25 14.25 1.4 5.15246 -53.2436 -162.356
1543 0.5 14.25 1.4 4.90465 -51.2405 -131.471
1544 0.75 14.25 1.4 4.65708 -51.7884 -123.644
1545 1 14.25 1.4 4.40978 -49.6777 -111.888
1546 1.25 14.25 1.4 4.16281 -49.9904 -109.955
1547 1.5 14.25 1.4 3.91622 -46.9767 -93.185
1548 1.75 14.25 1.4 3.67009 -47.5314 -50.3091
1549 2 14.25 1.4 3.42452 -46.5684 -115.644
1550 2.25 14.25 1.4 3.17964 -45.4772 -47.9784
1551 2.5 14.25 1.4 2.93562 -46.4729 -90.6193
1552 2.75 14.25 1.4 2.6927 -43.227 -55.0087
1553 3 14.25 1.4 2.45121 -48.5919 -57.8068
1554 3.25 14.25 1.4 2.21161 -43.0336 -82.9969
1555 3.5 14.25 1.4 1.97458 -42.7278 -93.7235
1556 3.75 14.25 1.4 1.7412 -41.319 -126.523
1557 4 14.25 1.4 1.51312 -39.187 -165.192
1558 4.25 14.25 1.4 1.29318 -44.5575 -129.993
1559 4.5 14.25 1.4 1.08632 -41.5126 146.072
1560 4.75 14.25 1.4 0.901598 -39.2342 -44.0576
1561 5 14.25 1.4 0.755419 -36.1329 27.5825
1562 5.25 14.25 1.4 0.673378 -63.6486 5.90821
1563 5.5 14.25 1.4 0.679129 -32.6813 135.901
1564 5.75 14.25 1.4 0.770711 -33.7683 -130.046
1565 6 14.25 1.4 0.922917 -35.6793 133.156
1566 6.25 14.25 1.4 1.11111 -37.1238 -58.2372
1567 6.5 14.25 1.4 1.31998 -40.1829 36.1969
1568 6.75 14.25 1.4 1.54114 -40.2873 113.201
1569 7 14.25 1.4 1.77 -40.9988 146.178
1570 7.25 14.25 1.4 2.00391 -42.4443 -171.63
1571 7.5 14.25 1.4 2.24131 -40.7053 -162.722
1572 7.75 14.25 1.4 2.48118 -44.3168 -167.242
1573 8 14.25 1.4 2.72287 -46.975 -140.592
1574 8.25 14.25 1.4 2.96594 -45.3641 -158.078
1575 8.5 14.25 1.4 3.21007 -46.1416 -179.639
1576 8.75 14.25 1.4 3.45505 -47.9458 -178.341
1577 9 14.25 1.4 3.70069 -48.4062 -175.714
1578 9.25 14.25 1.4 3.94689 -45.8475 162.293
1579 9.5 14.25 1.4 4.19353 -53.8562 178.935
1580 9.75 14.25 1.4 4.44055 -64.228 -85.9098
1581 10 14.25 1.4 4.68788 -55.1548 -146.53
1582 10.25 14.25 1.4 4.93549 -62.0684 -133.753
1583 10.5 14.25 1.4 5.18332 -61.4755 25.4433
1584 10.75 14.25 1.4 5.43135 -63.1032 114.613
1585 11 14.25 1.4 5.67956 -60.1815 -126.15
1586 11.25 14.25 1.4 5.92791 -54.491 63.6705
1587 11.5 14.25 1.4 6.1764 -53.1908 33.0902
1588 11.75 14.25 1.4 6.42501 -53.8412 35.6919
1589 12 14.25 1.4 6.67372 -54.5217 36.3516
1590 12.25 14.25 1.4 6.92252 -57.3463 19.3223
1591 12.5 14.25 1.4 7.1714 -64.2093 1.5246
1592 12.75 14.25 1.4 7.42037 -64.2333 59.7325
1593 13 14.25 1.4 7.66939 -58.8533 -88.3271
1594 13.25 14.25 1.4 7.91848 -60.2975 -84.3283
1595 13.5 14.25 1.4 8.16763 -56.4104 -129.086
1596 13.75 14.25 1.4 8.41682 -58.5837 -130.38
1597 14 14.25 1.4 8.66607 -55.5137 -155.306
1598 14.25 14.25 1.4 8.91535 -61.3957 -141.492
1599 14.5 14.25 1.4 9.16468 -61.7963 168.816
1600 14.75 14.25 1.4 9.41404 -56.2814 -154.003
1601 15 14.25 1.4 9.66343 -58.8823 174.068
1602 15.25 14.25 1.4 9.91285 -58.1354 158.696
1603 15.5 14.25 1.4 10.1623 -67.6795 -126.63
1604 15.75 14.25 1.4 10.4118 -68.2586 38.5004
1605 16 14.25 1.4 10.6613 -69.7791 -177.213
1606 16.25 14.25 1.4 10.9108 -67.5108 125.814
1607 16.5 14.25 1.4 11.1604 -65.678 -23.4918
1608 16.75 14.25 1.4 11.4099 -60.9665 14.8963
1609 17 14.25 1.4 11.6595 -56.8723 68.5553
1610 17.25 14.25 1.4 11.9091 -62.5634 -92.9145
1611 17.5 14.25 1.4 12.1587 -59.0235 -57.0429
1612 17.75 14.25 1.4 12.4084 -63.0489 17.8159
1613 18 14.25 1.4 12.658 -58.9417 12.9731
1614 18.25 14.25 1.4 12.9077 -60.0798 -103.175
1615 18.5 14.25 1.4 13.1573 -64.1986 -22.4796
1616 18.75 14.25 1.4 13.407 -61.4869 -91.048
1617 19 14.25 1.4 13.6567 -63.831 -139.604
1618 19.25 14.25 1.4 13.9064 -68.3093 124.682
1619 19.5 14.25 1.4 14.1562 -61.3726 -168.608
1620 19.75 14.25 1.4 14.4059 -65.1428 151.642
1621 20 14.25 1.4 14.6556 -59.3877 126.356
1622 20.25 14.25 1.4 14.9054 -66.184 -45.0954
1623 20.5 14.25 1.4 15.1551 -58.0373 93.5862
1624 20.75 14.25 1.4 15.4049 -79.2498 23.998
1625 21 14.25 1.4 15.6547 -62.0194 75.9941
1626 21.25 14.25 1.4 15.9044 -61.1804 -154.898
1627 21.5 14.25 1.4 16.1542 -61.2093 -45.8772
1628 21.75 14.25 1.4 16.404 -63.3518 126.289
1629 22 14.25 1.4 16.6538 -61.0547 -39.7463
1630 22.25 14.25 1.4 16.9036 -59.6909 11.7745
1631 22.5 14.25 1.4 17.1534 -62.1512 7.58428
1632 22.75 14.25 1.4 17.4032 -73.34 89.1384
1633 23 14.25 1.4 17.6531 -59.3819 24.9897
1634 23.25 14.25 1.4 17.9029 -61.745 107.243
1635 23.5 14.25 1.4 18.1527 -57.6419 157.343
1636 23.75 14.25 1.4 18.4026 -58.5903 167.584
1637 24 14.25 1.4 18.6524 -57.976 -168.4
1638 24.25 14.25 1.4 18.9022 -66.7682 -162.807
